%OpenBCI Raw EEG Data
%
%Sample Rate = 250.0 Hz
%First Column = SampleIndex
%Other Columns = EEG data in microvolts followed by Accel Data (in G) interleaved with Aux Data
0, -6113.49, -6103.57, -6195.61, -6135.29, -119893.44, -111902.98, -142010.70, -143105.94, -0.01, -0.05, 1.01
1, -6111.68, -6101.71, -6193.76, -6133.39, -119891.52, -111901.13, -142008.86, -143104.09, -0.01, -0.05, 1.01
2, -6113.22, -6103.19, -6195.21, -6134.93, -119892.88, -111902.51, -142010.17, -143105.41, 0.00, -0.04, 1.01
3, -6114.92, -6104.95, -6196.93, -6136.65, -119894.48, -111904.20, -142011.83, -143107.06, 0.00, -0.04, 1.01
4, -6113.67, -6103.72, -6195.66, -6135.29, -119893.19, -111902.91, -142010.50, -143105.86, 0.00, -0.04, 1.01
5, -6110.21, -6100.22, -6192.15, -6131.73, -119889.66, -111899.31, -142006.94, -143102.25, 0.00, -0.04, 1.01
6, -6109.94, -6099.97, -6191.90, -6131.44, -119889.37, -111899.00, -142006.69, -143101.98, 0.00, -0.04, 1.01
7, -6109.67, -6099.70, -6191.59, -6131.19, -119888.98, -111898.73, -142006.33, -143101.72, -0.00, -0.04, 1.01
8, -6110.32, -6100.39, -6192.22, -6131.93, -119889.66, -111899.38, -142006.97, -143102.38, -0.00, -0.04, 1.01
9, -6112.08, -6102.18, -6193.91, -6133.74, -119891.49, -111901.14, -142008.78, -143104.09, -0.00, -0.04, 1.01
10, -6111.48, -6101.58, -6193.38, -6133.25, -119890.84, -111900.52, -142008.09, -143103.38, -0.00, -0.04, 1.01
11, -6110.63, -6100.71, -6192.55, -6132.29, -119889.92, -111899.55, -142007.22, -143102.50, -0.00, -0.04, 1.01
12, -6110.68, -6100.71, -6192.60, -6132.22, -119889.92, -111899.53, -142007.27, -143102.44, -0.00, -0.04, 1.01
13, -6112.33, -6102.34, -6194.20, -6133.97, -119891.47, -111901.26, -142008.88, -143104.06, -0.00, -0.04, 1.01
14, -6112.38, -6102.43, -6194.18, -6134.03, -119891.38, -111901.23, -142008.83, -143104.06, -0.00, -0.04, 1.01
15, -6112.13, -6102.18, -6193.82, -6133.79, -119891.09, -111900.98, -142008.55, -143103.81, -0.00, -0.04, 1.01
16, -6111.37, -6101.40, -6193.15, -6132.96, -119890.46, -111900.25, -142007.80, -143103.16, -0.00, -0.04, 1.01
17, -6109.96, -6099.86, -6191.79, -6131.49, -119889.05, -111898.84, -142006.38, -143101.63, -0.00, -0.05, 1.01
18, -6106.92, -6096.97, -6188.77, -6128.49, -119885.90, -111895.76, -142003.33, -143098.56, -0.00, -0.05, 1.01
19, -6104.75, -6094.92, -6186.63, -6126.37, -119883.63, -111893.55, -142001.09, -143096.41, -0.00, -0.05, 1.01
20, -6105.83, -6095.95, -6187.72, -6127.42, -119884.74, -111894.62, -142002.17, -143097.50, -0.00, -0.05, 1.01
21, -6107.99, -6098.09, -6189.80, -6129.54, -119886.98, -111896.85, -142004.34, -143099.66, -0.00, -0.05, 1.01
22, -6104.91, -6094.96, -6186.72, -6126.52, -119883.82, -111893.63, -142001.20, -143096.48, -0.01, -0.05, 1.01
23, -6104.80, -6094.85, -6186.58, -6126.32, -119883.58, -111893.41, -142000.97, -143096.22, -0.01, -0.05, 1.01
24, -6105.18, -6095.34, -6187.01, -6126.72, -119884.00, -111893.88, -142001.33, -143096.73, -0.01, -0.05, 1.01
25, -6105.27, -6095.45, -6187.23, -6126.86, -119884.16, -111894.04, -142001.55, -143096.94, -0.01, -0.05, 1.01
26, -6105.36, -6095.57, -6187.28, -6126.97, -119884.18, -111894.21, -142001.61, -143096.91, -0.01, -0.05, 1.01
27, -6105.87, -6095.97, -6187.66, -6127.33, -119884.54, -111894.57, -142002.02, -143097.34, -0.01, -0.05, 1.01
28, -6107.44, -6097.65, -6189.24, -6128.92, -119886.04, -111896.09, -142003.67, -143098.91, -0.01, -0.05, 1.01
29, -6107.08, -6097.27, -6188.95, -6128.62, -119885.84, -111895.91, -142003.47, -143098.67, -0.01, -0.05, 1.01
30, -6107.73, -6097.91, -6189.56, -6129.27, -119886.53, -111896.54, -142004.06, -143099.34, -0.01, -0.05, 1.01
31, -6108.71, -6098.96, -6190.52, -6130.30, -119887.47, -111897.39, -142005.02, -143100.27, -0.01, -0.05, 1.01
32, -6108.64, -6098.81, -6190.36, -6130.10, -119887.27, -111897.12, -142004.73, -143100.11, -0.00, -0.06, 1.00
33, -6109.27, -6099.41, -6191.12, -6130.84, -119887.98, -111897.88, -142005.52, -143100.83, -0.00, -0.06, 1.00
34, -6110.10, -6100.24, -6191.97, -6131.60, -119888.72, -111898.73, -142006.38, -143101.58, -0.00, -0.06, 1.00
35, -6108.15, -6098.23, -6189.91, -6129.54, -119886.64, -111896.67, -142004.20, -143099.48, -0.00, -0.06, 1.00
36, -6105.56, -6095.68, -6187.32, -6127.04, -119884.05, -111894.04, -142001.56, -143096.91, -0.00, -0.06, 1.00
37, -6105.24, -6095.34, -6187.01, -6126.75, -119883.69, -111893.77, -142001.44, -143096.67, -0.01, -0.05, 1.01
38, -6105.96, -6096.04, -6187.61, -6127.37, -119884.45, -111894.37, -142002.08, -143097.31, -0.01, -0.05, 1.01
39, -6107.59, -6097.65, -6189.33, -6129.00, -119886.02, -111896.00, -142003.58, -143098.92, -0.01, -0.05, 1.01
40, -6105.92, -6096.04, -6187.68, -6127.40, -119884.41, -111894.37, -142001.92, -143097.30, -0.01, -0.05, 1.01
41, -6107.32, -6097.47, -6189.11, -6128.80, -119885.86, -111895.94, -142003.41, -143098.75, -0.01, -0.05, 1.01
42, -6107.75, -6097.69, -6189.40, -6129.09, -119886.08, -111896.18, -142003.73, -143099.02, -0.01, -0.05, 1.01
43, -6104.84, -6094.78, -6186.52, -6126.21, -119883.11, -111893.21, -142000.83, -143096.13, -0.01, -0.05, 1.01
44, -6105.13, -6095.10, -6186.81, -6126.55, -119883.38, -111893.52, -142000.97, -143096.36, -0.01, -0.05, 1.01
45, -6106.16, -6096.04, -6187.79, -6127.51, -119884.38, -111894.48, -142001.98, -143097.34, -0.01, -0.05, 1.01
46, -6104.84, -6094.65, -6186.47, -6126.19, -119883.11, -111893.19, -142000.83, -143096.02, -0.01, -0.05, 1.01
47, -6102.74, -6092.73, -6184.53, -6124.18, -119881.09, -111891.20, -141998.80, -143094.00, -0.00, -0.04, 1.01
48, -6103.26, -6093.35, -6185.11, -6124.80, -119881.68, -111891.78, -141999.27, -143094.61, -0.00, -0.04, 1.01
49, -6105.69, -6095.79, -6187.45, -6127.28, -119884.05, -111894.10, -142001.80, -143097.03, -0.00, -0.04, 1.01
50, -6106.65, -6096.55, -6188.33, -6128.13, -119884.90, -111895.11, -142002.69, -143097.86, -0.00, -0.04, 1.01
51, -6105.40, -6095.34, -6187.10, -6126.93, -119883.71, -111893.88, -142001.41, -143096.67, -0.00, -0.04, 1.01
52, -6104.98, -6095.05, -6186.72, -6126.57, -119883.27, -111893.43, -142000.97, -143096.25, -0.01, -0.04, 1.01
53, -6104.64, -6094.74, -6186.38, -6126.21, -119882.93, -111893.12, -142000.69, -143095.95, -0.01, -0.04, 1.01
54, -6107.26, -6097.29, -6189.06, -6128.76, -119885.63, -111895.78, -142003.33, -143098.56, -0.01, -0.04, 1.01
55, -6108.26, -6098.34, -6190.07, -6129.76, -119886.59, -111896.77, -142004.36, -143099.64, -0.01, -0.04, 1.01
56, -6108.33, -6098.49, -6190.11, -6129.97, -119886.62, -111896.80, -142004.34, -143099.70, -0.01, -0.04, 1.01
57, -6108.87, -6098.99, -6190.58, -6130.46, -119887.11, -111897.34, -142004.86, -143100.22, -0.01, -0.05, 1.01
58, -6112.73, -6102.85, -6194.52, -6134.37, -119891.09, -111901.26, -142008.86, -143104.16, -0.01, -0.05, 1.01
59, -6110.61, -6100.69, -6192.42, -6132.22, -119888.90, -111899.06, -142006.69, -143101.97, -0.01, -0.05, 1.01
60, -6110.27, -6100.26, -6191.95, -6131.78, -119888.47, -111898.64, -142006.11, -143101.41, -0.01, -0.05, 1.01
61, -6109.09, -6099.10, -6190.83, -6130.64, -119887.09, -111897.39, -142004.83, -143100.22, -0.01, -0.05, 1.01
62, -6106.70, -6096.71, -6188.50, -6128.16, -119884.72, -111895.02, -142002.61, -143098.02, -0.01, -0.05, 1.01
63, -6106.83, -6096.75, -6188.57, -6128.16, -119884.78, -111895.13, -142002.70, -143098.13, -0.01, -0.05, 1.01
64, -6106.65, -6096.57, -6188.39, -6127.98, -119884.54, -111894.93, -142002.50, -143097.83, -0.01, -0.05, 1.01
65, -6105.54, -6095.54, -6187.32, -6126.97, -119883.45, -111893.84, -142001.39, -143096.67, -0.01, -0.05, 1.01
66, -6105.11, -6095.05, -6186.76, -6126.43, -119882.95, -111893.32, -142000.83, -143096.22, -0.01, -0.05, 1.01
67, -6105.71, -6095.52, -6187.34, -6127.04, -119883.51, -111893.99, -142001.48, -143096.89, -0.00, -0.05, 1.01
68, -6108.04, -6097.91, -6189.71, -6129.34, -119885.86, -111896.38, -142003.83, -143099.23, -0.00, -0.05, 1.01
69, -6108.26, -6098.18, -6189.82, -6129.50, -119886.02, -111896.56, -142003.91, -143099.39, -0.00, -0.05, 1.01
70, -6107.19, -6097.09, -6188.77, -6128.42, -119884.98, -111895.47, -142002.89, -143098.25, -0.00, -0.05, 1.01
71, -6109.58, -6099.39, -6191.12, -6130.84, -119887.42, -111897.88, -142005.25, -143100.72, -0.00, -0.05, 1.01
72, -6108.87, -6098.58, -6190.29, -6130.06, -119886.55, -111897.10, -142004.36, -143099.86, -0.01, -0.05, 1.01
73, -6106.27, -6095.99, -6187.68, -6127.42, -119883.91, -111894.44, -142001.72, -143097.19, -0.01, -0.05, 1.01
74, -6105.78, -6095.63, -6187.34, -6127.04, -119883.53, -111894.05, -142001.36, -143096.69, -0.01, -0.05, 1.01
75, -6106.99, -6097.02, -6188.64, -6128.38, -119884.77, -111895.27, -142002.64, -143098.13, -0.01, -0.05, 1.01
76, -6106.07, -6096.04, -6187.57, -6127.35, -119883.76, -111894.33, -142001.56, -143097.14, -0.01, -0.05, 1.01
77, -6105.89, -6095.83, -6187.32, -6127.08, -119883.51, -111894.08, -142001.34, -143096.89, -0.01, -0.05, 1.00
78, -6106.30, -6096.26, -6187.75, -6127.53, -119883.89, -111894.48, -142001.81, -143097.30, -0.01, -0.05, 1.00
79, -6107.70, -6097.69, -6189.22, -6128.96, -119885.34, -111895.82, -142003.27, -143098.70, -0.01, -0.05, 1.00
80, -6107.50, -6097.51, -6189.00, -6128.67, -119885.01, -111895.60, -142003.02, -143098.36, -0.01, -0.05, 1.00
81, -6106.65, -6096.71, -6188.17, -6127.89, -119884.20, -111894.70, -142002.17, -143097.58, -0.01, -0.05, 1.00
82, -6106.18, -6096.21, -6187.66, -6127.42, -119883.78, -111894.15, -142001.72, -143097.11, -0.01, -0.05, 1.01
83, -6108.02, -6098.02, -6189.47, -6129.25, -119885.63, -111896.14, -142003.58, -143098.98, -0.01, -0.05, 1.01
84, -6110.50, -6100.48, -6191.90, -6131.64, -119888.07, -111898.55, -142005.92, -143101.42, -0.01, -0.05, 1.01
85, -6109.20, -6099.12, -6190.65, -6130.28, -119886.69, -111897.10, -142004.63, -143100.11, -0.01, -0.05, 1.01
86, -6108.64, -6098.47, -6190.07, -6129.72, -119885.97, -111896.56, -142003.95, -143099.44, -0.01, -0.05, 1.01
87, -6110.85, -6100.62, -6192.24, -6131.89, -119888.14, -111898.71, -142006.27, -143101.56, -0.01, -0.05, 1.01
88, -6109.33, -6099.14, -6190.67, -6130.32, -119886.66, -111897.14, -142004.73, -143099.97, -0.01, -0.06, 1.01
89, -6107.37, -6097.13, -6188.80, -6128.38, -119884.63, -111895.16, -142002.75, -143098.03, -0.01, -0.06, 1.01
90, -6108.60, -6098.45, -6190.05, -6129.61, -119885.81, -111896.34, -142003.95, -143099.28, -0.01, -0.06, 1.01
91, -6110.72, -6100.60, -6192.10, -6131.71, -119887.89, -111898.44, -142006.17, -143101.41, -0.01, -0.06, 1.01
92, -6111.70, -6101.51, -6193.15, -6132.63, -119888.90, -111899.45, -142007.02, -143102.53, -0.01, -0.06, 1.01
93, -6110.41, -6100.28, -6191.84, -6131.40, -119887.63, -111898.28, -142005.75, -143101.23, -0.01, -0.05, 1.01
94, -6109.07, -6098.90, -6190.47, -6130.01, -119886.20, -111896.80, -142004.25, -143099.80, -0.01, -0.05, 1.01
95, -6107.03, -6096.86, -6188.39, -6127.89, -119884.07, -111894.69, -142002.23, -143097.77, -0.01, -0.05, 1.01
96, -6107.52, -6097.35, -6188.95, -6128.54, -119884.67, -111895.27, -142002.91, -143098.34, -0.01, -0.05, 1.01
97, -6107.39, -6097.22, -6188.77, -6128.42, -119884.49, -111895.09, -142002.70, -143098.14, -0.01, -0.05, 1.01
98, -6108.44, -6098.34, -6189.85, -6129.41, -119885.45, -111896.07, -142003.64, -143099.16, -0.01, -0.05, 1.01
99, -6111.28, -6101.11, -6192.64, -6132.13, -119888.25, -111898.84, -142006.47, -143101.92, -0.01, -0.05, 1.01
100, -6110.32, -6100.13, -6191.68, -6131.13, -119887.24, -111897.92, -142005.48, -143100.88, -0.01, -0.05, 1.01
101, -6109.45, -6099.28, -6190.85, -6130.39, -119886.30, -111897.05, -142004.56, -143100.02, -0.01, -0.05, 1.01
102, -6110.79, -6100.71, -6192.19, -6131.60, -119887.69, -111898.35, -142005.83, -143101.36, -0.01, -0.05, 1.01
103, -6112.04, -6101.94, -6193.36, -6132.85, -119888.96, -111899.53, -142007.13, -143102.61, -0.01, -0.05, 1.01
104, -6112.06, -6101.89, -6193.53, -6132.92, -119889.05, -111899.63, -142007.17, -143102.69, -0.01, -0.05, 1.01
105, -6111.91, -6101.71, -6193.33, -6132.67, -119888.77, -111899.40, -142007.02, -143102.48, -0.01, -0.05, 1.01
106, -6112.89, -6102.74, -6194.41, -6133.72, -119889.66, -111900.48, -142007.98, -143103.44, -0.01, -0.05, 1.01
107, -6113.67, -6103.61, -6195.26, -6134.59, -119890.46, -111901.23, -142008.70, -143104.27, -0.01, -0.05, 1.01
108, -6112.64, -6102.58, -6194.27, -6133.59, -119889.41, -111900.16, -142007.75, -143103.27, 0.00, -0.05, 1.01
109, -6111.32, -6101.18, -6192.98, -6132.13, -119888.09, -111898.80, -142006.34, -143101.86, 0.00, -0.05, 1.01
110, -6108.28, -6098.16, -6189.94, -6129.05, -119884.96, -111895.76, -142003.22, -143098.75, 0.00, -0.05, 1.01
111, -6109.47, -6099.34, -6191.08, -6130.30, -119886.05, -111896.95, -142004.36, -143099.97, 0.00, -0.05, 1.01
112, -6110.61, -6100.66, -6192.26, -6131.58, -119887.34, -111898.13, -142005.59, -143101.14, 0.00, -0.05, 1.01
113, -6108.42, -6098.34, -6189.98, -6129.23, -119885.05, -111895.87, -142003.25, -143098.91, -0.00, -0.05, 1.01
114, -6107.99, -6097.91, -6189.51, -6128.78, -119884.52, -111895.42, -142002.80, -143098.41, -0.00, -0.05, 1.01
115, -6106.99, -6096.91, -6188.46, -6127.82, -119883.42, -111894.37, -142001.77, -143097.34, -0.00, -0.05, 1.01
116, -6106.14, -6095.97, -6187.66, -6127.02, -119882.55, -111893.48, -142000.98, -143096.52, -0.00, -0.05, 1.01
117, -6106.50, -6096.39, -6188.10, -6127.40, -119883.04, -111893.92, -142001.39, -143096.94, -0.00, -0.05, 1.01
118, -6107.14, -6096.97, -6188.75, -6127.95, -119883.53, -111894.41, -142001.95, -143097.45, 0.00, -0.04, 1.01
119, -6108.87, -6098.81, -6190.43, -6129.76, -119885.25, -111896.23, -142003.64, -143099.17, 0.00, -0.04, 1.01
120, -6109.54, -6099.59, -6191.23, -6130.52, -119886.02, -111896.98, -142004.34, -143099.94, 0.00, -0.04, 1.01
121, -6111.21, -6101.22, -6192.80, -6132.00, -119887.65, -111898.55, -142006.03, -143101.55, 0.00, -0.04, 1.01
122, -6112.58, -6102.61, -6194.16, -6133.36, -119889.01, -111899.91, -142007.31, -143102.84, 0.00, -0.04, 1.01
123, -6111.64, -6101.60, -6193.20, -6132.49, -119887.96, -111898.95, -142006.27, -143101.73, -0.01, -0.04, 1.01
124, -6109.16, -6099.12, -6190.67, -6129.99, -119885.41, -111896.36, -142003.63, -143099.23, -0.01, -0.04, 1.01
125, -6108.33, -6098.09, -6189.85, -6129.16, -119884.56, -111895.40, -142002.80, -143098.36, -0.01, -0.04, 1.01
126, -6108.15, -6097.91, -6189.69, -6128.92, -119884.29, -111895.22, -142002.50, -143098.19, -0.01, -0.04, 1.01
127, -6106.90, -6096.71, -6188.46, -6127.69, -119882.95, -111893.99, -142001.14, -143096.84, -0.01, -0.04, 1.01
128, -6108.93, -6098.79, -6190.45, -6129.79, -119884.94, -111896.02, -142003.25, -143098.97, -0.01, -0.05, 1.02
129, -6108.04, -6097.91, -6189.62, -6128.94, -119884.18, -111895.13, -142002.53, -143098.19, -0.01, -0.05, 1.02
130, -6108.37, -6098.20, -6190.07, -6129.38, -119884.52, -111895.49, -142002.91, -143098.52, -0.01, -0.05, 1.02
131, -6108.35, -6098.07, -6189.96, -6129.27, -119884.29, -111895.35, -142002.73, -143098.34, -0.01, -0.05, 1.02
132, -6106.52, -6096.24, -6188.01, -6127.22, -119882.28, -111893.39, -142000.63, -143096.22, -0.01, -0.05, 1.02
133, -6107.75, -6097.49, -6189.26, -6128.42, -119883.51, -111894.62, -142001.91, -143097.47, -0.01, -0.05, 1.02
134, -6110.25, -6100.01, -6191.79, -6130.97, -119886.04, -111897.16, -142004.45, -143100.02, -0.01, -0.05, 1.02
135, -6111.30, -6101.06, -6192.82, -6132.02, -119887.04, -111898.10, -142005.41, -143101.03, -0.01, -0.05, 1.02
136, -6110.94, -6100.77, -6192.53, -6131.69, -119886.69, -111897.81, -142005.03, -143100.69, -0.01, -0.05, 1.02
137, -6111.50, -6101.38, -6193.13, -6132.36, -119887.24, -111898.44, -142005.67, -143101.31, -0.01, -0.05, 1.02
138, -6113.16, -6102.94, -6194.79, -6133.99, -119888.77, -111899.96, -142007.27, -143102.88, -0.01, -0.05, 1.01
139, -6113.67, -6103.46, -6195.21, -6134.48, -119889.26, -111900.41, -142007.67, -143103.28, -0.01, -0.05, 1.01
140, -6113.54, -6103.28, -6194.96, -6134.19, -119888.96, -111900.14, -142007.38, -143103.06, -0.01, -0.05, 1.01
141, -6116.91, -6106.59, -6198.38, -6137.61, -119892.45, -111903.54, -142010.84, -143106.53, -0.01, -0.05, 1.01
142, -6117.29, -6107.06, -6198.90, -6138.17, -119892.95, -111904.01, -142011.38, -143106.95, -0.01, -0.05, 1.01
143, -6115.68, -6105.42, -6197.27, -6136.54, -119891.20, -111902.35, -142009.59, -143105.23, -0.01, -0.05, 1.01
144, -6113.78, -6103.50, -6195.41, -6134.66, -119889.19, -111900.38, -142007.59, -143103.28, -0.01, -0.05, 1.01
145, -6113.25, -6102.88, -6194.85, -6134.10, -119888.63, -111899.80, -142007.06, -143102.77, -0.01, -0.05, 1.01
146, -6112.04, -6101.62, -6193.67, -6132.92, -119887.35, -111898.57, -142005.86, -143101.56, -0.01, -0.05, 1.01
147, -6111.70, -6101.33, -6193.24, -6132.58, -119887.02, -111898.20, -142005.48, -143101.05, -0.01, -0.05, 1.01
148, -6109.67, -6099.32, -6191.21, -6130.39, -119884.85, -111896.05, -142003.31, -143098.97, -0.00, -0.05, 1.01
149, -6109.67, -6099.32, -6191.25, -6130.35, -119884.85, -111896.05, -142003.22, -143098.95, -0.00, -0.05, 1.01
150, -6110.10, -6099.81, -6191.86, -6130.86, -119885.27, -111896.59, -142003.72, -143099.50, -0.00, -0.05, 1.01
151, -6110.48, -6100.22, -6192.15, -6131.44, -119885.68, -111897.05, -142004.19, -143099.89, -0.00, -0.05, 1.01
152, -6111.61, -6101.38, -6193.27, -6132.54, -119886.73, -111898.10, -142005.36, -143101.00, -0.00, -0.05, 1.01
153, -6112.53, -6102.23, -6194.09, -6133.34, -119887.58, -111898.80, -142006.06, -143101.77, -0.01, -0.04, 1.02
154, -6113.00, -6102.65, -6194.54, -6133.85, -119888.02, -111899.24, -142006.48, -143102.20, -0.01, -0.04, 1.02
155, -6113.74, -6103.37, -6195.32, -6134.46, -119888.72, -111899.96, -142007.17, -143103.00, -0.01, -0.04, 1.02
156, -6112.55, -6102.07, -6194.12, -6133.16, -119887.42, -111898.62, -142005.81, -143101.61, -0.01, -0.04, 1.02
157, -6111.21, -6100.84, -6192.86, -6131.89, -119886.05, -111897.27, -142004.38, -143100.17, -0.01, -0.04, 1.02
158, -6111.66, -6101.18, -6193.20, -6132.25, -119886.39, -111897.73, -142004.86, -143100.58, -0.00, -0.05, 1.01
159, -6109.56, -6099.08, -6191.01, -6130.14, -119884.27, -111895.60, -142002.77, -143098.45, -0.00, -0.05, 1.01
160, -6108.08, -6097.71, -6189.62, -6128.67, -119882.75, -111894.10, -142001.20, -143096.84, -0.00, -0.05, 1.01
161, -6109.78, -6099.50, -6191.30, -6130.48, -119884.41, -111895.78, -142002.92, -143098.67, -0.00, -0.05, 1.01
162, -6113.13, -6102.88, -6194.70, -6133.85, -119887.76, -111899.18, -142006.31, -143102.08, -0.00, -0.05, 1.01
163, -6112.20, -6101.94, -6193.80, -6132.89, -119886.91, -111898.23, -142005.39, -143101.20, -0.00, -0.05, 1.01
164, -6110.05, -6099.72, -6191.52, -6130.59, -119884.52, -111895.98, -142003.05, -143098.86, -0.00, -0.05, 1.01
165, -6110.16, -6099.84, -6191.57, -6130.70, -119884.49, -111896.12, -142003.00, -143098.91, -0.00, -0.05, 1.01
166, -6108.87, -6098.49, -6190.29, -6129.45, -119883.40, -111894.77, -142001.86, -143097.67, -0.00, -0.05, 1.01
167, -6106.38, -6096.04, -6187.97, -6127.08, -119880.94, -111892.31, -141999.48, -143095.23, -0.00, -0.05, 1.01
168, -6107.03, -6096.80, -6188.75, -6127.78, -119881.59, -111892.96, -142000.16, -143095.95, -0.01, -0.06, 1.01
169, -6107.75, -6097.51, -6189.33, -6128.42, -119882.26, -111893.63, -142000.77, -143096.53, -0.01, -0.06, 1.01
170, -6107.30, -6097.02, -6188.91, -6128.00, -119881.77, -111893.23, -142000.34, -143096.09, -0.01, -0.06, 1.01
171, -6110.72, -6100.31, -6192.28, -6131.37, -119885.09, -111896.65, -142003.73, -143099.47, -0.01, -0.06, 1.01
172, -6111.23, -6100.77, -6192.82, -6131.82, -119885.59, -111897.05, -142004.11, -143099.94, -0.01, -0.06, 1.01
173, -6109.76, -6099.39, -6191.23, -6130.23, -119883.91, -111895.47, -142002.45, -143098.34, -0.01, -0.05, 1.01
174, -6109.83, -6099.54, -6191.41, -6130.39, -119884.00, -111895.63, -142002.61, -143098.45, -0.01, -0.05, 1.01
175, -6107.12, -6096.86, -6188.68, -6127.73, -119881.45, -111892.92, -142000.00, -143095.80, -0.01, -0.05, 1.01
176, -6106.61, -6096.28, -6188.01, -6127.31, -119880.85, -111892.38, -141999.47, -143095.17, -0.01, -0.05, 1.01
177, -6106.32, -6096.04, -6187.72, -6126.90, -119880.41, -111892.09, -141999.06, -143094.81, -0.01, -0.05, 1.01
178, -6106.07, -6095.86, -6187.57, -6126.64, -119880.20, -111891.76, -141998.73, -143094.55, -0.01, -0.05, 1.01
179, -6107.59, -6097.31, -6189.04, -6128.13, -119881.66, -111893.23, -142000.20, -143095.91, -0.01, -0.05, 1.01
180, -6109.27, -6098.92, -6190.74, -6129.74, -119883.31, -111894.88, -142001.92, -143097.66, -0.01, -0.05, 1.01
181, -6112.15, -6101.85, -6193.65, -6132.67, -119886.17, -111897.79, -142004.78, -143100.53, -0.01, -0.05, 1.01
182, -6112.29, -6101.96, -6193.67, -6132.78, -119886.10, -111897.84, -142004.83, -143100.59, -0.01, -0.05, 1.01
183, -6112.78, -6102.41, -6194.14, -6133.32, -119886.62, -111898.30, -142005.33, -143101.20, -0.01, -0.05, 1.01
184, -6113.22, -6102.94, -6194.67, -6133.81, -119887.17, -111898.77, -142005.75, -143101.72, -0.01, -0.05, 1.01
185, -6113.07, -6102.74, -6194.61, -6133.63, -119886.84, -111898.48, -142005.52, -143101.39, -0.01, -0.05, 1.01
186, -6113.85, -6103.61, -6195.32, -6134.37, -119887.60, -111899.20, -142006.23, -143102.17, -0.01, -0.05, 1.01
187, -6113.47, -6103.28, -6194.94, -6134.01, -119887.31, -111898.87, -142006.02, -143101.77, -0.01, -0.05, 1.01
188, -6111.46, -6101.29, -6192.86, -6132.00, -119885.27, -111896.90, -142004.00, -143099.75, -0.00, -0.05, 1.01
189, -6109.94, -6099.77, -6191.28, -6130.44, -119883.66, -111895.29, -142002.30, -143098.19, -0.00, -0.05, 1.01
190, -6109.40, -6099.23, -6190.81, -6129.90, -119882.91, -111894.64, -142001.66, -143097.63, -0.00, -0.05, 1.01
191, -6110.65, -6100.53, -6192.08, -6131.22, -119884.13, -111895.98, -142003.00, -143098.86, -0.00, -0.05, 1.01
192, -6111.68, -6101.56, -6193.02, -6132.31, -119885.21, -111897.10, -142004.06, -143099.91, -0.00, -0.05, 1.01
193, -6111.93, -6101.71, -6193.36, -6132.58, -119885.45, -111897.23, -142004.27, -143100.16, -0.01, -0.05, 1.01
194, -6112.78, -6102.54, -6194.20, -6133.43, -119886.28, -111898.04, -142005.03, -143100.92, -0.01, -0.05, 1.01
195, -6112.11, -6101.94, -6193.62, -6132.80, -119885.66, -111897.48, -142004.45, -143100.25, -0.01, -0.05, 1.01
196, -6112.13, -6101.91, -6193.69, -6132.80, -119885.70, -111897.50, -142004.45, -143100.36, -0.01, -0.05, 1.01
197, -6113.34, -6103.17, -6194.99, -6134.06, -119886.95, -111898.75, -142005.70, -143101.56, -0.01, -0.05, 1.01
198, -6110.65, -6100.51, -6192.35, -6131.49, -119884.12, -111895.98, -142002.92, -143098.83, -0.01, -0.05, 1.01
199, -6109.54, -6099.43, -6191.23, -6130.35, -119882.95, -111894.86, -142001.72, -143097.63, -0.01, -0.05, 1.01
200, -6108.75, -6098.58, -6190.36, -6129.52, -119882.17, -111894.04, -142001.00, -143096.80, -0.01, -0.05, 1.01
201, -6106.81, -6096.64, -6188.37, -6127.53, -119880.23, -111892.18, -141999.05, -143094.97, -0.01, -0.05, 1.01
202, -6105.58, -6095.37, -6187.12, -6126.34, -119878.88, -111890.80, -141997.66, -143093.52, -0.01, -0.05, 1.01
203, -6105.47, -6095.21, -6186.96, -6126.21, -119878.75, -111890.62, -141997.39, -143093.27, -0.01, -0.05, 1.01
204, -6106.00, -6095.79, -6187.48, -6126.66, -119879.24, -111891.16, -141997.98, -143093.83, -0.01, -0.04, 1.01
205, -6106.88, -6096.75, -6188.46, -6127.64, -119880.18, -111892.09, -141998.92, -143094.86, -0.01, -0.04, 1.01
206, -6105.29, -6095.12, -6186.90, -6126.03, -119878.52, -111890.46, -141997.30, -143093.16, -0.01, -0.04, 1.01
207, -6105.51, -6095.41, -6187.16, -6126.28, -119878.81, -111890.80, -141997.56, -143093.47, -0.01, -0.04, 1.01
208, -6105.98, -6095.81, -6187.61, -6126.70, -119879.29, -111891.17, -141998.03, -143093.98, -0.01, -0.04, 1.01
209, -6108.55, -6098.43, -6190.27, -6129.29, -119881.92, -111893.74, -142000.63, -143096.52, -0.01, -0.04, 1.01
210, -6109.94, -6099.84, -6191.68, -6130.68, -119883.22, -111895.11, -142001.91, -143097.86, -0.01, -0.04, 1.01
211, -6106.52, -6096.46, -6188.13, -6127.26, -119879.62, -111891.64, -141998.34, -143094.33, -0.01, -0.04, 1.01
212, -6106.54, -6096.37, -6188.21, -6127.19, -119879.64, -111891.69, -141998.44, -143094.36, -0.01, -0.04, 1.01
213, -6108.69, -6098.47, -6190.36, -6129.36, -119881.81, -111893.81, -142000.63, -143096.52, -0.01, -0.04, 1.01
214, -6106.47, -6096.39, -6188.28, -6127.26, -119879.53, -111891.58, -141998.42, -143094.33, -0.01, -0.04, 1.01
215, -6105.58, -6095.59, -6187.36, -6126.37, -119878.59, -111890.64, -141997.41, -143093.34, -0.01, -0.04, 1.01
216, -6106.16, -6096.15, -6188.08, -6127.10, -119879.27, -111891.33, -141998.02, -143094.08, -0.01, -0.04, 1.01
217, -6105.20, -6095.23, -6187.10, -6126.23, -119878.46, -111890.44, -141997.14, -143093.27, -0.01, -0.04, 1.01
218, -6106.76, -6096.86, -6188.71, -6127.75, -119879.98, -111891.95, -141998.77, -143094.72, -0.01, -0.04, 1.01
219, -6106.56, -6096.71, -6188.53, -6127.51, -119879.60, -111891.66, -141998.44, -143094.39, -0.01, -0.04, 1.02
220, -6105.87, -6095.90, -6187.79, -6126.75, -119878.86, -111890.93, -141997.67, -143093.67, -0.01, -0.04, 1.02
221, -6106.81, -6096.80, -6188.77, -6127.78, -119879.80, -111891.95, -141998.66, -143094.55, -0.01, -0.04, 1.02
222, -6106.14, -6096.13, -6188.10, -6127.04, -119879.11, -111891.20, -141997.97, -143093.77, -0.01, -0.04, 1.02
223, -6105.85, -6095.88, -6187.83, -6126.79, -119878.77, -111890.77, -141997.55, -143093.52, -0.01, -0.04, 1.02
224, -6105.56, -6095.57, -6187.57, -6126.55, -119878.46, -111890.52, -141997.25, -143093.27, -0.00, -0.05, 1.01
225, -6108.42, -6098.38, -6190.38, -6129.32, -119881.27, -111893.27, -142000.09, -143096.02, -0.00, -0.05, 1.01
226, -6110.54, -6100.55, -6192.57, -6131.42, -119883.38, -111895.38, -142002.22, -143098.19, -0.00, -0.05, 1.01
227, -6108.64, -6098.61, -6190.63, -6129.54, -119881.43, -111893.52, -142000.30, -143096.22, -0.00, -0.05, 1.01
228, -6109.71, -6099.59, -6191.66, -6130.50, -119882.37, -111894.51, -142001.13, -143097.06, -0.00, -0.05, 1.01
229, -6110.30, -6099.99, -6192.15, -6131.02, -119882.84, -111894.95, -142001.56, -143097.58, -0.01, -0.05, 1.01
230, -6106.54, -6096.21, -6188.37, -6127.26, -119879.09, -111891.20, -141997.83, -143093.81, -0.01, -0.05, 1.01
231, -6106.25, -6096.06, -6188.10, -6127.04, -119878.75, -111890.91, -141997.59, -143093.52, -0.01, -0.05, 1.01
232, -6108.51, -6098.38, -6190.34, -6129.32, -119880.98, -111893.14, -141999.83, -143095.80, -0.01, -0.05, 1.01
233, -6107.28, -6097.13, -6189.11, -6128.09, -119879.82, -111891.91, -141998.64, -143094.64, -0.01, -0.05, 1.01
234, -6106.25, -6096.15, -6188.10, -6127.24, -119878.86, -111890.95, -141997.66, -143093.63, -0.01, -0.05, 1.01
235, -6108.37, -6098.16, -6190.18, -6129.25, -119880.83, -111893.03, -141999.67, -143095.61, -0.01, -0.05, 1.01
236, -6108.80, -6098.54, -6190.58, -6129.50, -119881.16, -111893.30, -141999.91, -143095.94, -0.01, -0.05, 1.01
237, -6107.75, -6097.58, -6189.49, -6128.51, -119880.07, -111892.25, -141998.86, -143094.91, -0.01, -0.05, 1.01
238, -6108.73, -6098.58, -6190.45, -6129.59, -119880.98, -111893.25, -141999.88, -143095.89, -0.01, -0.05, 1.01
239, -6109.65, -6099.48, -6191.34, -6130.46, -119881.99, -111894.10, -142000.67, -143096.84, -0.01, -0.04, 1.01
240, -6109.29, -6099.17, -6191.01, -6130.12, -119881.55, -111893.73, -142000.30, -143096.47, -0.01, -0.04, 1.01
241, -6111.19, -6101.00, -6192.86, -6132.00, -119883.35, -111895.60, -142002.23, -143098.30, -0.01, -0.04, 1.01
242, -6110.16, -6099.95, -6191.92, -6130.99, -119882.39, -111894.59, -142001.28, -143097.30, -0.01, -0.04, 1.01
243, -6108.98, -6098.85, -6190.67, -6129.76, -119881.05, -111893.30, -141999.91, -143096.00, -0.01, -0.04, 1.01
244, -6110.48, -6100.46, -6192.19, -6131.24, -119882.55, -111894.77, -142001.33, -143097.45, -0.01, -0.05, 1.01
245, -6108.78, -6098.65, -6190.36, -6129.41, -119880.70, -111893.01, -141999.67, -143095.59, -0.01, -0.05, 1.01
246, -6105.31, -6095.19, -6186.96, -6125.99, -119877.30, -111889.63, -141996.25, -143092.22, -0.01, -0.05, 1.01
247, -6105.51, -6095.54, -6187.19, -6126.30, -119877.56, -111889.95, -141996.63, -143092.56, -0.01, -0.05, 1.01
248, -6103.68, -6093.78, -6185.38, -6124.51, -119875.66, -111888.05, -141994.73, -143090.66, -0.01, -0.05, 1.01
249, -6104.95, -6094.83, -6186.63, -6125.70, -119876.89, -111889.14, -141995.86, -143091.86, -0.00, -0.06, 1.01
250, -6106.97, -6096.91, -6188.68, -6127.80, -119878.97, -111891.31, -141998.03, -143094.05, -0.00, -0.06, 1.01
251, -6106.43, -6096.42, -6188.08, -6127.19, -119878.41, -111890.75, -141997.34, -143093.45, -0.00, -0.06, 1.01
252, -6106.94, -6096.86, -6188.55, -6127.64, -119878.75, -111891.17, -141997.67, -143093.73, -0.00, -0.06, 1.01
253, -6106.41, -6096.28, -6187.99, -6127.02, -119878.13, -111890.66, -141997.14, -143093.16, -0.00, -0.06, 1.01
254, -6105.33, -6095.14, -6186.90, -6125.94, -119877.01, -111889.52, -141996.11, -143092.08, -0.00, -0.05, 1.01
255, -6108.33, -6098.14, -6189.89, -6128.89, -119879.94, -111892.43, -141999.11, -143095.13, -0.00, -0.05, 1.01
0, -6110.34, -6100.22, -6191.97, -6130.95, -119881.92, -111894.53, -142001.16, -143097.14, -0.00, -0.05, 1.01
1, -6108.64, -6098.54, -6190.23, -6129.32, -119880.23, -111892.85, -141999.42, -143095.45, -0.00, -0.05, 1.01
2, -6107.39, -6097.35, -6189.00, -6128.09, -119879.06, -111891.64, -141998.27, -143094.28, -0.00, -0.05, 1.01
3, -6107.37, -6097.29, -6189.02, -6128.09, -119879.09, -111891.58, -141998.17, -143094.28, -0.01, -0.06, 1.01
4, -6106.81, -6096.68, -6188.33, -6127.46, -119878.37, -111890.99, -141997.39, -143093.67, -0.01, -0.06, 1.01
5, -6107.64, -6097.47, -6189.09, -6128.27, -119879.04, -111891.76, -141998.08, -143094.41, -0.01, -0.06, 1.01
6, -6108.53, -6098.34, -6190.00, -6129.18, -119879.95, -111892.54, -141998.97, -143095.28, -0.01, -0.06, 1.01
7, -6106.56, -6096.37, -6188.06, -6127.19, -119878.03, -111890.59, -141997.03, -143093.31, -0.01, -0.06, 1.01
8, -6105.54, -6095.48, -6187.21, -6126.30, -119877.19, -111889.56, -141996.06, -143092.31, -0.01, -0.05, 1.01
9, -6106.18, -6096.01, -6187.77, -6126.86, -119877.66, -111890.17, -141996.67, -143092.83, -0.01, -0.05, 1.01
10, -6108.31, -6098.14, -6189.80, -6128.87, -119879.71, -111892.23, -141998.77, -143094.95, -0.01, -0.05, 1.01
11, -6107.19, -6097.00, -6188.66, -6127.73, -119878.52, -111891.17, -141997.70, -143093.88, -0.01, -0.05, 1.01
12, -6105.65, -6095.48, -6187.10, -6126.19, -119876.91, -111889.56, -141996.06, -143092.27, -0.01, -0.05, 1.01
13, -6106.16, -6095.92, -6187.54, -6126.61, -119877.32, -111889.90, -141996.36, -143092.53, -0.01, -0.06, 1.01
14, -6106.99, -6096.75, -6188.46, -6127.46, -119878.23, -111890.91, -141997.30, -143093.47, -0.01, -0.06, 1.01
15, -6110.61, -6100.37, -6192.15, -6131.11, -119881.88, -111894.55, -142001.03, -143097.11, -0.01, -0.06, 1.01
16, -6110.01, -6099.90, -6191.68, -6130.61, -119881.37, -111893.97, -142000.50, -143096.58, -0.01, -0.06, 1.01
17, -6105.62, -6095.50, -6187.19, -6126.19, -119876.88, -111889.45, -141995.94, -143092.06, -0.01, -0.06, 1.01
18, -6107.10, -6096.86, -6188.57, -6127.57, -119878.23, -111890.86, -141997.34, -143093.50, -0.01, -0.05, 1.01
19, -6107.79, -6097.65, -6189.35, -6128.27, -119879.02, -111891.64, -141998.14, -143094.44, -0.01, -0.05, 1.01
20, -6108.69, -6098.49, -6190.18, -6129.12, -119879.87, -111892.52, -141999.00, -143095.17, -0.01, -0.05, 1.01
21, -6108.04, -6097.73, -6189.49, -6128.47, -119879.11, -111891.76, -141998.19, -143094.33, -0.01, -0.05, 1.01
22, -6106.27, -6095.97, -6187.68, -6126.70, -119877.23, -111889.97, -141996.41, -143092.59, -0.01, -0.05, 1.01
23, -6104.93, -6094.58, -6186.34, -6125.43, -119875.95, -111888.65, -141995.13, -143091.22, -0.00, -0.05, 1.02
24, -6105.31, -6094.96, -6186.83, -6125.90, -119876.45, -111889.14, -141995.59, -143091.66, -0.00, -0.05, 1.02
25, -6106.88, -6096.57, -6188.44, -6127.44, -119877.97, -111890.68, -141997.14, -143093.27, -0.00, -0.05, 1.02
26, -6105.71, -6095.57, -6187.34, -6126.30, -119876.73, -111889.56, -141995.91, -143092.06, -0.00, -0.05, 1.02
27, -6107.81, -6097.53, -6189.47, -6128.45, -119878.86, -111891.63, -141998.06, -143094.14, -0.00, -0.05, 1.02
28, -6106.65, -6096.39, -6188.26, -6127.24, -119877.61, -111890.46, -141996.97, -143092.94, -0.01, -0.05, 1.01
29, -6103.95, -6093.64, -6185.53, -6124.56, -119874.88, -111887.71, -141994.14, -143090.14, -0.01, -0.05, 1.01
30, -6100.98, -6090.67, -6182.51, -6121.52, -119871.82, -111884.70, -141991.08, -143087.09, -0.01, -0.05, 1.01
31, -6104.64, -6094.36, -6186.23, -6125.18, -119875.58, -111888.34, -141994.84, -143090.81, -0.01, -0.05, 1.01
32, -6105.31, -6095.12, -6187.05, -6126.03, -119876.34, -111889.19, -141995.64, -143091.66, -0.01, -0.05, 1.01
33, -6103.81, -6093.55, -6185.55, -6124.51, -119874.79, -111887.77, -141994.19, -143090.09, -0.01, -0.05, 1.01
34, -6105.29, -6095.07, -6186.98, -6125.90, -119876.27, -111889.16, -141995.59, -143091.61, -0.01, -0.05, 1.01
35, -6105.42, -6095.23, -6187.12, -6125.99, -119876.36, -111889.16, -141995.70, -143091.70, -0.01, -0.05, 1.01
36, -6103.23, -6092.88, -6184.88, -6123.69, -119874.08, -111886.93, -141993.50, -143089.52, -0.01, -0.05, 1.01
37, -6103.01, -6092.73, -6184.66, -6123.53, -119873.88, -111886.73, -141993.19, -143089.20, -0.01, -0.05, 1.01
38, -6104.71, -6094.56, -6186.45, -6125.29, -119875.66, -111888.54, -141994.92, -143090.98, -0.01, -0.05, 1.02
39, -6105.71, -6095.52, -6187.48, -6126.26, -119876.72, -111889.55, -141996.02, -143092.02, -0.01, -0.05, 1.02
40, -6106.72, -6096.46, -6188.39, -6127.28, -119877.54, -111890.59, -141997.09, -143093.05, -0.01, -0.05, 1.02
41, -6106.70, -6096.46, -6188.30, -6127.31, -119877.48, -111890.51, -141996.92, -143092.94, -0.01, -0.05, 1.02
42, -6107.32, -6097.13, -6188.86, -6127.82, -119878.08, -111891.06, -141997.41, -143093.50, -0.01, -0.05, 1.02
43, -6107.68, -6097.53, -6189.18, -6128.22, -119878.46, -111891.45, -141997.83, -143093.98, -0.01, -0.05, 1.01
44, -6107.21, -6097.04, -6188.71, -6127.71, -119877.92, -111890.91, -141997.41, -143093.47, -0.01, -0.05, 1.01
45, -6105.31, -6095.14, -6186.81, -6125.76, -119875.95, -111888.96, -141995.52, -143091.53, -0.01, -0.05, 1.01
46, -6102.74, -6092.57, -6184.26, -6123.15, -119873.32, -111886.37, -141992.77, -143088.91, -0.01, -0.05, 1.01
47, -6102.07, -6092.03, -6183.65, -6122.54, -119872.83, -111885.79, -141992.16, -143088.39, -0.01, -0.05, 1.01
48, -6104.51, -6094.47, -6186.05, -6125.14, -119875.33, -111888.25, -141994.73, -143090.78, -0.00, -0.05, 1.01
49, -6105.69, -6095.68, -6187.30, -6126.39, -119876.52, -111889.41, -141995.91, -143092.05, -0.00, -0.05, 1.01
50, -6105.89, -6095.77, -6187.54, -6126.64, -119876.70, -111889.68, -141996.17, -143092.22, -0.00, -0.05, 1.01
51, -6105.92, -6095.83, -6187.57, -6126.66, -119876.65, -111889.68, -141996.09, -143092.11, -0.00, -0.05, 1.01
52, -6106.97, -6096.91, -6188.66, -6127.69, -119877.70, -111890.73, -141997.09, -143093.22, -0.00, -0.05, 1.01
53, -6104.57, -6094.38, -6186.20, -6125.18, -119875.27, -111888.16, -141994.59, -143090.77, -0.00, -0.05, 1.01
54, -6103.72, -6093.58, -6185.33, -6124.40, -119874.41, -111887.33, -141993.75, -143089.89, -0.01, -0.05, 1.01
55, -6104.46, -6094.34, -6186.00, -6125.09, -119875.02, -111888.09, -141994.44, -143090.66, -0.01, -0.05, 1.01
56, -6104.69, -6094.65, -6186.31, -6125.36, -119875.38, -111888.38, -141994.77, -143090.91, -0.01, -0.05, 1.01
57, -6107.86, -6097.82, -6189.53, -6128.51, -119878.57, -111891.55, -141997.97, -143094.20, -0.01, -0.05, 1.01
58, -6106.92, -6096.84, -6188.50, -6127.55, -119877.59, -111890.62, -141997.00, -143093.20, -0.01, -0.05, 1.01
59, -6105.54, -6095.37, -6187.07, -6126.10, -119876.05, -111889.16, -141995.47, -143091.66, -0.01, -0.04, 1.01
60, -6105.09, -6094.99, -6186.65, -6125.61, -119875.62, -111888.78, -141995.08, -143091.23, -0.01, -0.04, 1.01
61, -6104.95, -6094.69, -6186.45, -6125.41, -119875.51, -111888.58, -141994.97, -143091.08, -0.01, -0.04, 1.01
62, -6106.97, -6096.77, -6188.50, -6127.46, -119877.45, -111890.62, -141996.89, -143093.14, -0.01, -0.04, 1.01
63, -6106.47, -6096.35, -6188.01, -6126.86, -119876.83, -111890.05, -141996.27, -143092.56, -0.01, -0.04, 1.01
64, -6104.71, -6094.58, -6186.34, -6125.18, -119875.17, -111888.31, -141994.56, -143090.78, -0.01, -0.05, 1.02
65, -6104.78, -6094.56, -6186.34, -6125.29, -119875.24, -111888.36, -141994.69, -143090.81, -0.01, -0.05, 1.02
66, -6103.03, -6092.68, -6184.50, -6123.46, -119873.20, -111886.50, -141992.83, -143088.98, -0.01, -0.05, 1.02
67, -6102.79, -6092.57, -6184.35, -6123.24, -119872.91, -111886.23, -141992.56, -143088.70, -0.01, -0.05, 1.02
68, -6105.56, -6095.30, -6187.05, -6125.85, -119875.73, -111888.98, -141995.28, -143091.48, -0.01, -0.05, 1.02
69, -6105.85, -6095.54, -6187.34, -6126.19, -119876.00, -111889.30, -141995.69, -143091.81, -0.01, -0.05, 1.01
70, -6105.49, -6095.14, -6187.01, -6126.03, -119875.66, -111888.94, -141995.28, -143091.48, -0.01, -0.05, 1.01
71, -6105.98, -6095.59, -6187.54, -6126.43, -119876.18, -111889.41, -141995.78, -143091.86, -0.01, -0.05, 1.01
72, -6107.86, -6097.49, -6189.42, -6128.36, -119878.13, -111891.31, -141997.66, -143093.81, -0.01, -0.05, 1.01
73, -6107.32, -6097.02, -6188.84, -6127.89, -119877.59, -111890.75, -141997.14, -143093.30, -0.01, -0.05, 1.01
74, -6105.69, -6095.34, -6187.10, -6126.21, -119875.82, -111889.01, -141995.42, -143091.55, -0.01, -0.05, 1.01
75, -6104.51, -6094.14, -6185.91, -6125.07, -119874.57, -111887.77, -141994.19, -143090.36, -0.01, -0.05, 1.01
76, -6103.52, -6093.13, -6184.88, -6124.02, -119873.48, -111886.75, -141993.13, -143089.31, -0.01, -0.05, 1.01
77, -6101.62, -6091.27, -6183.05, -6122.19, -119871.75, -111884.91, -141991.33, -143087.48, -0.01, -0.05, 1.01
78, -6101.67, -6091.23, -6183.14, -6122.21, -119871.71, -111884.98, -141991.39, -143087.53, -0.01, -0.05, 1.01
79, -6103.84, -6093.33, -6185.24, -6124.33, -119873.72, -111887.11, -141993.39, -143089.69, -0.01, -0.05, 1.01
80, -6105.13, -6094.67, -6186.58, -6125.67, -119875.04, -111888.41, -141994.61, -143090.97, -0.01, -0.05, 1.01
81, -6107.73, -6097.31, -6189.20, -6128.29, -119877.74, -111891.13, -141997.41, -143093.67, -0.01, -0.05, 1.01
82, -6107.55, -6097.20, -6189.02, -6128.18, -119877.59, -111890.93, -141997.31, -143093.58, -0.01, -0.05, 1.01
83, -6106.41, -6096.13, -6188.01, -6127.19, -119876.52, -111889.86, -141996.17, -143092.56, -0.01, -0.05, 1.01
84, -6107.41, -6097.11, -6188.95, -6128.04, -119877.45, -111890.82, -141997.13, -143093.38, -0.01, -0.05, 1.01
85, -6105.42, -6095.03, -6186.83, -6125.96, -119875.44, -111888.74, -141995.11, -143091.27, -0.01, -0.05, 1.01
86, -6105.92, -6095.50, -6187.36, -6126.48, -119875.91, -111889.27, -141995.73, -143091.92, -0.01, -0.05, 1.01
87, -6105.98, -6095.57, -6187.54, -6126.64, -119876.09, -111889.41, -141995.80, -143092.05, -0.01, -0.05, 1.01
88, -6106.09, -6095.75, -6187.66, -6126.81, -119876.18, -111889.38, -141995.80, -143092.05, -0.01, -0.05, 1.01
89, -6107.26, -6096.80, -6188.77, -6127.91, -119877.25, -111890.57, -141996.94, -143093.14, -0.01, -0.05, 1.00
90, -6109.67, -6099.32, -6191.16, -6130.32, -119879.64, -111893.09, -141999.48, -143095.55, -0.01, -0.05, 1.00
91, -6109.00, -6098.67, -6190.45, -6129.72, -119879.04, -111892.41, -141998.75, -143094.88, -0.01, -0.05, 1.00
92, -6108.44, -6097.98, -6189.80, -6128.98, -119878.37, -111891.66, -141998.08, -143094.28, -0.01, -0.05, 1.00
93, -6105.40, -6094.85, -6186.72, -6125.90, -119875.33, -111888.56, -141994.97, -143091.11, -0.01, -0.05, 1.00
94, -6104.64, -6094.00, -6185.96, -6125.14, -119874.55, -111887.77, -141994.14, -143090.20, -0.01, -0.05, 1.00
95, -6103.43, -6092.82, -6184.71, -6123.98, -119873.18, -111886.55, -141993.00, -143089.09, -0.01, -0.05, 1.00
96, -6104.31, -6093.76, -6185.55, -6124.91, -119874.05, -111887.42, -141993.78, -143089.94, -0.01, -0.05, 1.00
97, -6104.04, -6093.42, -6185.31, -6124.69, -119873.67, -111887.20, -141993.52, -143089.63, -0.01, -0.05, 1.00
98, -6103.55, -6092.88, -6184.79, -6124.20, -119873.20, -111886.73, -141993.16, -143089.19, -0.01, -0.05, 1.00
99, -6104.53, -6094.00, -6185.82, -6125.14, -119874.23, -111887.64, -141994.09, -143090.20, -0.01, -0.05, 1.00
100, -6103.68, -6093.22, -6185.04, -6124.29, -119873.34, -111886.81, -141993.30, -143089.38, -0.01, -0.05, 1.00
101, -6104.91, -6094.45, -6186.36, -6125.45, -119874.57, -111888.11, -141994.41, -143090.61, -0.01, -0.05, 1.00
102, -6106.25, -6095.70, -6187.54, -6126.72, -119875.89, -111889.41, -141995.75, -143091.86, -0.01, -0.05, 1.00
103, -6105.98, -6095.57, -6187.25, -6126.55, -119875.66, -111889.23, -141995.63, -143091.77, -0.01, -0.05, 1.00
104, -6106.47, -6096.15, -6187.83, -6127.06, -119876.05, -111889.72, -141996.14, -143092.31, -0.01, -0.05, 1.01
105, -6107.32, -6096.97, -6188.62, -6127.75, -119876.80, -111890.46, -141996.81, -143092.98, -0.01, -0.05, 1.01
106, -6107.70, -6097.47, -6189.02, -6128.18, -119877.16, -111890.91, -141997.19, -143093.42, -0.01, -0.05, 1.01
107, -6108.22, -6097.85, -6189.56, -6128.67, -119877.68, -111891.40, -141997.75, -143093.94, -0.01, -0.05, 1.01
108, -6110.23, -6099.86, -6191.57, -6130.68, -119879.58, -111893.30, -141999.72, -143095.84, -0.01, -0.05, 1.01
109, -6110.54, -6100.15, -6191.86, -6130.97, -119879.95, -111893.66, -142000.00, -143096.20, -0.01, -0.05, 1.00
110, -6111.84, -6101.40, -6193.15, -6132.16, -119881.19, -111894.91, -142001.23, -143097.45, -0.01, -0.05, 1.00
111, -6113.36, -6102.81, -6194.56, -6133.68, -119882.73, -111896.34, -142002.75, -143099.02, -0.01, -0.05, 1.00
112, -6111.26, -6100.84, -6192.57, -6131.78, -119880.78, -111894.33, -142000.77, -143096.91, -0.01, -0.05, 1.00
113, -6109.38, -6098.99, -6190.72, -6129.88, -119878.77, -111892.45, -141998.86, -143095.02, -0.01, -0.05, 1.00
114, -6109.42, -6098.90, -6190.65, -6129.90, -119878.68, -111892.38, -141998.77, -143094.95, -0.00, -0.05, 1.00
115, -6109.25, -6098.85, -6190.58, -6129.74, -119878.59, -111892.29, -141998.77, -143094.95, -0.00, -0.05, 1.00
116, -6107.81, -6097.38, -6189.06, -6128.31, -119877.14, -111890.84, -141997.20, -143093.50, -0.00, -0.05, 1.00
117, -6107.26, -6096.84, -6188.46, -6127.75, -119876.52, -111890.26, -141996.50, -143092.89, -0.00, -0.05, 1.00
118, -6107.48, -6097.04, -6188.73, -6128.04, -119876.72, -111890.52, -141996.81, -143093.11, -0.00, -0.05, 1.00
119, -6106.92, -6096.39, -6188.01, -6127.33, -119876.16, -111889.90, -141996.30, -143092.56, -0.00, -0.06, 1.00
120, -6108.08, -6097.58, -6189.13, -6128.49, -119877.41, -111891.11, -141997.52, -143093.67, -0.00, -0.06, 1.00
121, -6107.66, -6097.27, -6188.88, -6128.22, -119876.98, -111890.68, -141996.98, -143093.27, -0.00, -0.06, 1.00
122, -6108.31, -6097.98, -6189.56, -6128.89, -119877.56, -111891.24, -141997.61, -143093.88, -0.00, -0.06, 1.00
123, -6109.69, -6099.41, -6191.03, -6130.37, -119878.97, -111892.70, -141999.17, -143095.33, -0.00, -0.06, 1.00
124, -6110.05, -6099.77, -6191.37, -6130.70, -119879.35, -111893.01, -141999.44, -143095.70, -0.01, -0.05, 1.00
125, -6110.88, -6100.71, -6192.26, -6131.51, -119880.27, -111893.95, -142000.31, -143096.69, -0.01, -0.05, 1.00
126, -6109.71, -6099.59, -6191.12, -6130.30, -119879.06, -111892.88, -141999.08, -143095.44, -0.01, -0.05, 1.00
127, -6108.37, -6098.20, -6189.80, -6129.05, -119877.74, -111891.48, -141997.83, -143094.05, -0.01, -0.05, 1.00
128, -6109.54, -6099.28, -6190.90, -6130.14, -119878.77, -111892.47, -141999.00, -143095.08, -0.01, -0.05, 1.00
129, -6110.25, -6099.99, -6191.66, -6130.84, -119879.48, -111893.27, -141999.67, -143095.89, -0.01, -0.05, 1.00
130, -6107.75, -6097.49, -6189.13, -6128.45, -119876.96, -111890.75, -141997.09, -143093.47, -0.01, -0.05, 1.00
131, -6107.21, -6096.89, -6188.55, -6127.82, -119876.34, -111890.17, -141996.52, -143092.89, -0.01, -0.05, 1.00
132, -6107.77, -6097.47, -6189.20, -6128.45, -119876.91, -111890.75, -141997.09, -143093.45, -0.01, -0.05, 1.00
133, -6109.58, -6099.19, -6190.90, -6130.21, -119878.59, -111892.47, -141998.89, -143095.13, -0.01, -0.05, 1.00
134, -6109.56, -6099.25, -6190.90, -6130.12, -119878.57, -111892.41, -141998.81, -143095.06, -0.01, -0.05, 1.01
135, -6110.34, -6099.99, -6191.63, -6130.95, -119879.35, -111893.25, -141999.63, -143095.95, -0.01, -0.05, 1.01
136, -6109.11, -6098.72, -6190.40, -6129.68, -119878.03, -111891.98, -141998.38, -143094.67, -0.01, -0.05, 1.01
137, -6109.58, -6099.28, -6190.92, -6130.28, -119878.68, -111892.59, -141998.89, -143095.22, -0.01, -0.05, 1.01
138, -6109.16, -6098.92, -6190.56, -6129.92, -119878.19, -111892.16, -141998.48, -143094.75, -0.01, -0.05, 1.01
139, -6107.81, -6097.49, -6189.31, -6128.51, -119876.73, -111890.80, -141997.14, -143093.41, -0.01, -0.05, 1.01
140, -6108.64, -6098.36, -6190.16, -6129.43, -119877.68, -111891.64, -141998.02, -143094.33, -0.01, -0.05, 1.01
141, -6107.48, -6097.20, -6188.95, -6128.20, -119876.47, -111890.41, -141996.73, -143093.09, -0.01, -0.05, 1.01
142, -6105.80, -6095.57, -6187.23, -6126.46, -119874.77, -111888.72, -141995.00, -143091.44, -0.01, -0.05, 1.01
143, -6103.79, -6093.51, -6185.24, -6124.58, -119872.83, -111886.75, -141993.09, -143089.56, -0.01, -0.05, 1.01
144, -6104.06, -6093.82, -6185.53, -6125.05, -119873.16, -111887.13, -141993.55, -143089.92, -0.01, -0.05, 1.01
145, -6107.14, -6096.89, -6188.55, -6127.98, -119876.18, -111890.17, -141996.56, -143092.95, -0.01, -0.05, 1.01
146, -6107.10, -6096.82, -6188.50, -6127.75, -119875.98, -111890.05, -141996.25, -143092.67, -0.01, -0.05, 1.01
147, -6105.51, -6095.23, -6186.92, -6126.17, -119874.39, -111888.42, -141994.61, -143091.03, -0.01, -0.05, 1.01
148, -6107.70, -6097.38, -6189.18, -6128.33, -119876.58, -111890.64, -141996.97, -143093.30, -0.01, -0.05, 1.01
149, -6108.49, -6098.25, -6189.94, -6129.16, -119877.38, -111891.51, -141997.77, -143094.13, -0.00, -0.05, 1.01
150, -6106.03, -6095.92, -6187.59, -6126.77, -119874.91, -111889.03, -141995.36, -143091.70, -0.00, -0.05, 1.01
151, -6104.57, -6094.45, -6186.02, -6125.32, -119873.48, -111887.55, -141994.02, -143090.31, -0.00, -0.05, 1.01
152, -6106.50, -6096.15, -6187.83, -6127.13, -119875.40, -111889.45, -141995.80, -143092.22, -0.00, -0.05, 1.01
153, -6108.24, -6097.87, -6189.56, -6128.85, -119877.01, -111891.13, -141997.52, -143093.83, -0.00, -0.05, 1.01
154, -6109.22, -6098.87, -6190.45, -6129.83, -119877.90, -111892.05, -141998.48, -143094.77, -0.00, -0.05, 1.01
155, -6109.80, -6099.48, -6191.03, -6130.37, -119878.59, -111892.56, -141998.97, -143095.30, -0.00, -0.05, 1.01
156, -6108.82, -6098.54, -6190.11, -6129.41, -119877.61, -111891.63, -141998.22, -143094.45, -0.00, -0.05, 1.01
157, -6109.22, -6098.81, -6190.49, -6129.83, -119877.92, -111892.02, -141998.58, -143094.83, -0.00, -0.05, 1.01
158, -6110.01, -6099.68, -6191.41, -6130.57, -119878.77, -111892.80, -141999.31, -143095.58, -0.00, -0.05, 1.01
159, -6110.23, -6099.84, -6191.59, -6130.75, -119878.93, -111893.01, -141999.39, -143095.75, -0.00, -0.05, 1.02
160, -6110.72, -6100.37, -6192.10, -6131.28, -119879.55, -111893.63, -142000.00, -143096.36, -0.00, -0.05, 1.02
161, -6110.83, -6100.55, -6192.17, -6131.44, -119879.73, -111893.66, -142000.22, -143096.58, -0.00, -0.05, 1.02
162, -6110.68, -6100.28, -6191.88, -6131.17, -119879.48, -111893.43, -141999.89, -143096.36, -0.00, -0.05, 1.02
163, -6110.79, -6100.28, -6191.90, -6131.22, -119879.35, -111893.52, -141999.88, -143096.31, -0.00, -0.05, 1.02
164, -6109.13, -6098.70, -6190.27, -6129.56, -119877.56, -111891.87, -141998.14, -143094.56, -0.00, -0.05, 1.02
165, -6110.07, -6099.61, -6191.28, -6130.55, -119878.62, -111892.80, -141999.13, -143095.58, -0.01, -0.05, 1.01
166, -6109.38, -6098.83, -6190.56, -6129.88, -119877.90, -111892.16, -141998.45, -143094.81, -0.01, -0.05, 1.01
167, -6109.67, -6099.14, -6190.81, -6130.12, -119878.15, -111892.36, -141998.66, -143095.03, -0.01, -0.05, 1.01
168, -6109.71, -6099.21, -6190.90, -6130.19, -119878.19, -111892.43, -141998.73, -143095.22, -0.01, -0.05, 1.01
169, -6107.86, -6097.27, -6189.00, -6128.29, -119876.36, -111890.51, -141996.92, -143093.38, -0.01, -0.05, 1.01
170, -6110.41, -6099.84, -6191.57, -6130.81, -119878.93, -111893.03, -141999.52, -143095.89, -0.01, -0.04, 1.02
171, -6110.05, -6099.59, -6191.14, -6130.46, -119878.50, -111892.72, -141999.11, -143095.50, -0.01, -0.04, 1.02
172, -6109.33, -6098.81, -6190.40, -6129.72, -119877.74, -111891.95, -141998.30, -143094.77, -0.01, -0.04, 1.02
173, -6109.76, -6099.19, -6190.83, -6130.10, -119878.23, -111892.43, -141998.91, -143095.27, -0.01, -0.04, 1.02
174, -6110.21, -6099.66, -6191.32, -6130.61, -119878.55, -111892.88, -141999.38, -143095.59, -0.01, -0.04, 1.02
175, -6112.44, -6101.89, -6193.49, -6132.74, -119880.80, -111895.13, -142001.59, -143097.86, -0.01, -0.05, 1.02
176, -6114.01, -6103.61, -6195.12, -6134.41, -119882.46, -111896.78, -142003.22, -143099.55, -0.01, -0.05, 1.02
177, -6112.38, -6101.98, -6193.56, -6132.85, -119880.91, -111895.20, -142001.75, -143098.03, -0.01, -0.05, 1.02
178, -6110.10, -6099.68, -6191.41, -6130.55, -119878.57, -111892.92, -141999.38, -143095.66, -0.01, -0.05, 1.02
179, -6109.92, -6099.50, -6191.21, -6130.35, -119878.37, -111892.70, -141999.05, -143095.44, -0.01, -0.05, 1.02
180, -6109.89, -6099.39, -6191.03, -6130.26, -119878.13, -111892.52, -141998.89, -143095.28, -0.01, -0.05, 1.01
181, -6109.87, -6099.34, -6191.01, -6130.21, -119878.15, -111892.52, -141998.92, -143095.28, -0.01, -0.05, 1.01
182, -6111.55, -6101.02, -6192.71, -6131.91, -119879.91, -111894.26, -142000.67, -143097.00, -0.01, -0.05, 1.01
183, -6110.23, -6099.79, -6191.52, -6130.70, -119878.70, -111892.98, -141999.38, -143095.81, -0.01, -0.05, 1.01
184, -6110.10, -6099.70, -6191.37, -6130.57, -119878.48, -111892.76, -141999.20, -143095.66, -0.01, -0.05, 1.01
185, -6110.01, -6099.59, -6191.16, -6130.46, -119878.39, -111892.70, -141999.11, -143095.53, -0.00, -0.05, 1.02
186, -6110.65, -6100.15, -6191.79, -6131.11, -119879.02, -111893.34, -141999.69, -143096.11, -0.00, -0.05, 1.02
187, -6110.05, -6099.63, -6191.16, -6130.48, -119878.34, -111892.74, -141999.13, -143095.50, -0.00, -0.05, 1.02
188, -6107.70, -6097.44, -6188.91, -6128.18, -119876.00, -111890.41, -141996.78, -143093.27, -0.00, -0.05, 1.02
189, -6108.15, -6097.78, -6189.40, -6128.62, -119876.40, -111890.75, -141997.28, -143093.72, -0.00, -0.05, 1.02
190, -6109.47, -6099.03, -6190.67, -6130.01, -119877.81, -111892.07, -141998.61, -143095.08, -0.00, -0.05, 1.02
191, -6108.33, -6097.85, -6189.53, -6128.80, -119876.73, -111890.93, -141997.52, -143093.98, -0.00, -0.05, 1.02
192, -6107.28, -6096.84, -6188.50, -6127.71, -119875.51, -111889.81, -141996.31, -143092.88, -0.00, -0.05, 1.02
193, -6107.50, -6097.13, -6188.73, -6127.93, -119875.80, -111890.17, -141996.63, -143093.14, -0.00, -0.05, 1.02
194, -6106.09, -6095.59, -6187.23, -6126.59, -119874.34, -111888.74, -141995.33, -143091.70, -0.00, -0.05, 1.02
195, -6106.07, -6095.59, -6187.21, -6126.55, -119874.28, -111888.78, -141995.20, -143091.75, -0.01, -0.05, 1.01
196, -6104.71, -6094.20, -6185.85, -6125.14, -119872.98, -111887.33, -141993.83, -143090.36, -0.01, -0.05, 1.01
197, -6106.14, -6095.59, -6187.25, -6126.64, -119874.48, -111888.67, -141995.13, -143091.69, -0.01, -0.05, 1.01
198, -6109.09, -6098.49, -6190.29, -6129.50, -119877.34, -111891.64, -141998.14, -143094.59, -0.01, -0.05, 1.01
199, -6108.33, -6097.71, -6189.40, -6128.69, -119876.49, -111890.80, -141997.34, -143093.72, -0.01, -0.05, 1.01
200, -6106.70, -6096.19, -6187.79, -6127.22, -119874.88, -111889.23, -141995.67, -143092.13, -0.01, -0.05, 1.02
201, -6106.85, -6096.33, -6188.08, -6127.53, -119875.04, -111889.55, -141995.84, -143092.33, -0.01, -0.05, 1.02
202, -6106.65, -6096.13, -6187.90, -6127.26, -119874.84, -111889.41, -141995.75, -143092.22, -0.01, -0.05, 1.02
203, -6105.54, -6095.03, -6186.81, -6126.05, -119873.77, -111888.31, -141994.73, -143091.14, -0.01, -0.05, 1.02
204, -6106.54, -6096.01, -6187.83, -6127.10, -119874.79, -111889.30, -141995.69, -143092.13, -0.01, -0.05, 1.02
205, -6106.50, -6095.92, -6187.68, -6126.97, -119874.50, -111889.07, -141995.42, -143092.02, -0.01, -0.05, 1.01
206, -6103.77, -6093.17, -6184.93, -6124.29, -119871.80, -111886.34, -141992.78, -143089.20, -0.01, -0.05, 1.01
207, -6105.74, -6095.12, -6186.90, -6126.14, -119873.81, -111888.36, -141994.84, -143091.19, -0.01, -0.05, 1.01
208, -6107.66, -6097.00, -6188.71, -6128.11, -119875.66, -111890.19, -141996.78, -143093.14, -0.01, -0.05, 1.01
209, -6108.35, -6097.78, -6189.40, -6128.83, -119876.31, -111890.88, -141997.25, -143093.77, -0.01, -0.05, 1.01
210, -6108.82, -6098.25, -6189.94, -6129.27, -119876.80, -111891.40, -141997.81, -143094.34, -0.01, -0.05, 1.01
211, -6107.14, -6096.53, -6188.33, -6127.60, -119875.13, -111889.72, -141996.27, -143092.75, -0.01, -0.05, 1.01
212, -6104.60, -6093.96, -6185.82, -6125.07, -119872.55, -111887.20, -141993.67, -143090.23, -0.01, -0.05, 1.01
213, -6103.32, -6092.73, -6184.41, -6123.75, -119871.15, -111885.90, -141992.30, -143088.86, -0.01, -0.05, 1.01
214, -6103.55, -6092.95, -6184.71, -6123.93, -119871.38, -111886.08, -141992.52, -143089.06, -0.01, -0.05, 1.01
215, -6105.69, -6094.96, -6186.76, -6126.03, -119873.54, -111888.20, -141994.69, -143091.17, -0.01, -0.05, 1.01
216, -6106.30, -6095.57, -6187.43, -6126.72, -119874.19, -111888.91, -141995.38, -143091.81, -0.01, -0.05, 1.01
217, -6104.02, -6093.40, -6185.15, -6124.47, -119872.00, -111886.62, -141993.08, -143089.63, -0.01, -0.05, 1.01
218, -6104.95, -6094.38, -6186.09, -6125.45, -119872.89, -111887.60, -141994.08, -143090.59, -0.01, -0.05, 1.01
219, -6108.33, -6097.69, -6189.47, -6128.89, -119876.34, -111891.04, -141997.52, -143094.08, -0.01, -0.05, 1.01
220, -6106.85, -6096.17, -6187.88, -6127.31, -119874.73, -111889.43, -141995.95, -143092.42, -0.00, -0.05, 1.01
221, -6104.37, -6093.67, -6185.31, -6124.85, -119872.13, -111886.86, -141993.25, -143089.73, -0.00, -0.05, 1.01
222, -6102.81, -6092.01, -6183.81, -6123.24, -119870.52, -111885.27, -141991.63, -143088.17, -0.00, -0.05, 1.01
223, -6104.62, -6093.85, -6185.73, -6125.07, -119872.45, -111887.13, -141993.59, -143090.08, -0.00, -0.05, 1.01
224, -6106.03, -6095.25, -6187.12, -6126.50, -119873.88, -111888.52, -141995.08, -143091.48, -0.00, -0.05, 1.01
225, -6105.18, -6094.45, -6186.20, -6125.67, -119872.89, -111887.60, -141994.08, -143090.55, -0.00, -0.05, 1.01
226, -6106.36, -6095.63, -6187.39, -6126.86, -119874.01, -111888.78, -141995.28, -143091.81, -0.00, -0.05, 1.01
227, -6105.58, -6094.85, -6186.76, -6126.14, -119873.27, -111888.07, -141994.53, -143091.17, -0.00, -0.05, 1.01
228, -6106.81, -6095.97, -6187.97, -6127.33, -119874.55, -111889.27, -141995.63, -143092.33, -0.00, -0.05, 1.01
229, -6106.99, -6096.21, -6188.17, -6127.57, -119874.70, -111889.38, -141995.86, -143092.47, -0.00, -0.05, 1.01
230, -6108.11, -6097.40, -6189.35, -6128.71, -119875.71, -111890.57, -141997.09, -143093.61, -0.01, -0.05, 1.01
231, -6107.41, -6096.68, -6188.55, -6127.98, -119874.97, -111889.90, -141996.30, -143092.91, -0.01, -0.05, 1.01
232, -6106.16, -6095.41, -6187.32, -6126.70, -119873.90, -111888.72, -141995.13, -143091.75, -0.01, -0.05, 1.01
233, -6105.87, -6095.32, -6187.01, -6126.55, -119873.70, -111888.34, -141994.84, -143091.48, -0.01, -0.05, 1.01
234, -6106.03, -6095.48, -6187.12, -6126.70, -119873.74, -111888.42, -141994.92, -143091.59, -0.01, -0.05, 1.01
235, -6106.09, -6095.41, -6187.23, -6126.70, -119873.67, -111888.52, -141994.97, -143091.64, -0.01, -0.05, 1.01
236, -6105.62, -6095.03, -6186.78, -6126.30, -119873.27, -111888.16, -141994.69, -143091.17, -0.01, -0.05, 1.01
237, -6106.43, -6095.86, -6187.45, -6126.99, -119873.98, -111888.85, -141995.28, -143091.77, -0.01, -0.05, 1.01
238, -6105.20, -6094.58, -6186.14, -6125.63, -119872.55, -111887.51, -141993.78, -143090.45, -0.01, -0.05, 1.01
239, -6103.90, -6093.29, -6184.79, -6124.38, -119871.26, -111886.19, -141992.52, -143089.14, -0.01, -0.05, 1.01
240, -6105.20, -6094.56, -6186.09, -6125.65, -119872.67, -111887.48, -141993.88, -143090.47, -0.00, -0.05, 1.01
241, -6106.45, -6095.90, -6187.48, -6127.08, -119874.01, -111888.74, -141995.28, -143091.81, -0.00, -0.05, 1.01
242, -6105.65, -6095.14, -6186.69, -6126.37, -119873.18, -111887.89, -141994.34, -143090.91, -0.00, -0.05, 1.01
243, -6105.29, -6094.78, -6186.31, -6125.92, -119872.76, -111887.62, -141994.03, -143090.55, -0.00, -0.05, 1.01
244, -6105.29, -6094.69, -6186.34, -6125.85, -119872.71, -111887.62, -141994.19, -143090.63, -0.00, -0.05, 1.01
245, -6104.13, -6093.51, -6185.08, -6124.60, -119871.44, -111886.39, -141992.88, -143089.34, -0.01, -0.05, 1.00
246, -6102.96, -6092.39, -6183.99, -6123.51, -119870.32, -111885.23, -141991.64, -143088.08, -0.01, -0.05, 1.00
247, -6101.91, -6091.30, -6182.87, -6122.39, -119869.23, -111884.20, -141990.59, -143086.97, -0.01, -0.05, 1.00
248, -6103.79, -6093.13, -6184.75, -6124.24, -119871.06, -111886.15, -141992.53, -143088.84, -0.01, -0.05, 1.00
249, -6105.13, -6094.52, -6186.05, -6125.61, -119872.42, -111887.45, -141993.86, -143090.20, -0.01, -0.05, 1.00
250, -6105.87, -6095.23, -6186.67, -6126.30, -119873.05, -111888.05, -141994.44, -143090.88, -0.01, -0.05, 1.01
251, -6104.53, -6093.96, -6185.46, -6125.05, -119871.71, -111886.75, -141993.09, -143089.69, -0.01, -0.05, 1.01
252, -6103.81, -6093.22, -6184.68, -6124.29, -119870.93, -111886.03, -141992.38, -143088.98, -0.01, -0.05, 1.01
253, -6106.43, -6095.86, -6187.36, -6126.97, -119873.67, -111888.72, -141995.11, -143091.64, -0.01, -0.05, 1.01
254, -6106.30, -6095.83, -6187.21, -6126.77, -119873.56, -111888.56, -141994.86, -143091.42, -0.01, -0.05, 1.01
255, -6106.09, -6095.54, -6186.94, -6126.48, -119873.16, -111888.27, -141994.50, -143091.08, -0.01, -0.05, 1.01
0, -6109.07, -6098.52, -6190.02, -6129.61, -119876.27, -111891.31, -141997.59, -143094.20, -0.01, -0.05, 1.01
1, -6110.32, -6099.81, -6191.23, -6130.84, -119877.45, -111892.59, -141998.89, -143095.42, -0.01, -0.05, 1.01
2, -6110.70, -6100.17, -6191.52, -6131.13, -119877.81, -111892.80, -141999.11, -143095.69, -0.01, -0.05, 1.01
3, -6110.94, -6100.39, -6191.72, -6131.44, -119877.95, -111892.96, -141999.17, -143095.81, -0.01, -0.05, 1.01
4, -6111.01, -6100.39, -6191.86, -6131.44, -119877.99, -111893.03, -141999.23, -143095.84, -0.00, -0.05, 1.02
5, -6110.50, -6099.92, -6191.28, -6130.79, -119877.30, -111892.41, -141998.69, -143095.38, -0.00, -0.05, 1.02
6, -6111.21, -6100.66, -6192.01, -6131.60, -119878.01, -111893.09, -141999.33, -143096.06, -0.00, -0.05, 1.02
7, -6109.29, -6098.76, -6190.14, -6129.65, -119875.91, -111891.17, -141997.31, -143094.08, -0.00, -0.05, 1.02
8, -6109.54, -6099.05, -6190.34, -6129.99, -119876.18, -111891.40, -141997.61, -143094.28, -0.00, -0.05, 1.02
9, -6112.02, -6101.56, -6192.75, -6132.45, -119878.70, -111893.81, -142000.05, -143096.69, -0.01, -0.05, 1.01
10, -6109.42, -6098.96, -6190.20, -6129.83, -119876.11, -111891.17, -141997.45, -143094.19, -0.01, -0.05, 1.01
11, -6108.82, -6098.43, -6189.60, -6129.25, -119875.42, -111890.62, -141996.77, -143093.38, -0.01, -0.05, 1.01
12, -6109.98, -6099.54, -6190.70, -6130.32, -119876.40, -111891.76, -141997.88, -143094.50, -0.01, -0.05, 1.01
13, -6112.00, -6101.53, -6192.68, -6132.31, -119878.34, -111893.73, -141999.89, -143096.56, -0.01, -0.05, 1.01
14, -6111.28, -6100.82, -6191.95, -6131.55, -119877.59, -111892.92, -141999.17, -143095.80, -0.01, -0.04, 1.01
15, -6108.64, -6098.18, -6189.31, -6128.92, -119874.95, -111890.23, -141996.52, -143093.16, -0.01, -0.04, 1.01
16, -6107.10, -6096.66, -6187.77, -6127.33, -119873.34, -111888.65, -141994.95, -143091.48, -0.01, -0.04, 1.01
17, -6105.40, -6094.99, -6186.18, -6125.74, -119871.80, -111887.02, -141993.41, -143089.84, -0.01, -0.04, 1.01
18, -6105.85, -6095.39, -6186.56, -6126.19, -119872.09, -111887.45, -141993.86, -143090.36, -0.01, -0.04, 1.01
19, -6107.03, -6096.59, -6187.79, -6127.37, -119873.30, -111888.60, -141994.91, -143091.55, -0.01, -0.04, 1.01
20, -6105.49, -6094.92, -6186.20, -6125.76, -119871.71, -111886.91, -141993.16, -143089.84, -0.01, -0.05, 1.01
21, -6103.66, -6093.00, -6184.30, -6123.86, -119869.74, -111885.09, -141991.28, -143088.00, -0.01, -0.05, 1.01
22, -6103.97, -6093.24, -6184.64, -6124.13, -119869.98, -111885.34, -141991.69, -143088.33, -0.01, -0.05, 1.01
23, -6106.45, -6095.79, -6187.12, -6126.59, -119872.45, -111887.73, -141994.02, -143090.75, -0.01, -0.05, 1.01
24, -6108.75, -6098.20, -6189.49, -6129.00, -119874.77, -111890.13, -141996.30, -143093.14, -0.01, -0.05, 1.01
25, -6107.41, -6096.84, -6188.13, -6127.73, -119873.41, -111888.76, -141994.95, -143091.75, -0.01, -0.04, 1.01
26, -6107.50, -6096.77, -6188.21, -6127.75, -119873.34, -111888.70, -141995.06, -143091.61, -0.01, -0.04, 1.01
27, -6108.15, -6097.53, -6188.84, -6128.42, -119873.92, -111889.41, -141995.67, -143092.22, -0.01, -0.04, 1.01
28, -6106.52, -6095.95, -6187.19, -6126.70, -119872.27, -111887.77, -141993.92, -143090.56, -0.01, -0.04, 1.01
29, -6105.80, -6095.23, -6186.49, -6126.05, -119871.59, -111887.06, -141993.20, -143089.88, -0.01, -0.04, 1.01
30, -6106.76, -6096.13, -6187.52, -6126.97, -119872.49, -111888.02, -141994.17, -143090.78, -0.01, -0.04, 1.02
31, -6107.97, -6097.27, -6188.64, -6128.18, -119873.61, -111889.12, -141995.31, -143091.89, -0.01, -0.04, 1.02
32, -6107.14, -6096.42, -6187.77, -6127.31, -119872.70, -111888.23, -141994.39, -143090.98, -0.01, -0.04, 1.02
33, -6108.15, -6097.38, -6188.77, -6128.27, -119873.63, -111889.16, -141995.36, -143092.08, -0.01, -0.04, 1.02
34, -6105.92, -6095.23, -6186.56, -6126.03, -119871.38, -111886.99, -141993.23, -143089.83, -0.01, -0.04, 1.02
35, -6107.03, -6096.33, -6187.66, -6127.22, -119872.54, -111888.13, -141994.28, -143090.91, -0.01, -0.05, 1.01
36, -6108.98, -6098.29, -6189.53, -6129.16, -119874.39, -111890.02, -141996.06, -143092.73, -0.01, -0.05, 1.01
37, -6108.26, -6097.69, -6188.88, -6128.38, -119873.66, -111889.19, -141995.39, -143091.95, -0.01, -0.05, 1.01
38, -6109.78, -6099.12, -6190.34, -6129.83, -119875.13, -111890.68, -141996.89, -143093.52, -0.01, -0.05, 1.01
39, -6107.55, -6096.86, -6188.08, -6127.57, -119872.78, -111888.41, -141994.59, -143091.19, -0.01, -0.05, 1.01
40, -6107.59, -6096.84, -6188.10, -6127.66, -119872.67, -111888.34, -141994.50, -143091.06, -0.01, -0.04, 1.01
41, -6108.66, -6097.98, -6189.22, -6128.83, -119873.77, -111889.41, -141995.53, -143092.16, -0.01, -0.04, 1.01
42, -6110.34, -6099.63, -6190.81, -6130.44, -119875.30, -111891.02, -141997.16, -143093.77, -0.01, -0.04, 1.01
43, -6109.56, -6098.92, -6190.02, -6129.76, -119874.55, -111890.37, -141996.41, -143093.05, -0.01, -0.04, 1.01
44, -6106.65, -6095.99, -6187.10, -6126.84, -119871.51, -111887.42, -141993.47, -143090.09, -0.01, -0.04, 1.01
45, -6108.31, -6097.62, -6188.66, -6128.47, -119873.14, -111888.94, -141995.00, -143091.66, -0.01, -0.04, 1.01
46, -6109.04, -6098.29, -6189.33, -6129.12, -119873.85, -111889.63, -141995.80, -143092.36, -0.01, -0.04, 1.01
47, -6107.59, -6096.80, -6187.95, -6127.66, -119872.47, -111888.23, -141994.39, -143090.92, -0.01, -0.04, 1.01
48, -6106.88, -6096.10, -6187.34, -6127.02, -119871.64, -111887.51, -141993.55, -143090.19, -0.01, -0.04, 1.01
49, -6106.12, -6095.34, -6186.43, -6126.26, -119870.75, -111886.64, -141992.67, -143089.34, -0.01, -0.04, 1.01
50, -6109.09, -6098.32, -6189.47, -6129.34, -119873.66, -111889.56, -141995.63, -143092.36, -0.01, -0.05, 1.00
51, -6108.75, -6097.96, -6189.13, -6128.94, -119873.38, -111889.27, -141995.31, -143091.97, -0.01, -0.05, 1.00
52, -6107.52, -6096.62, -6187.90, -6127.64, -119872.09, -111888.00, -141994.06, -143090.59, -0.01, -0.05, 1.00
53, -6107.64, -6096.75, -6187.95, -6127.64, -119872.11, -111888.00, -141994.02, -143090.63, -0.01, -0.05, 1.00
54, -6107.50, -6096.57, -6187.79, -6127.51, -119871.91, -111887.82, -141993.91, -143090.45, -0.01, -0.05, 1.00
55, -6107.55, -6096.68, -6187.79, -6127.71, -119872.02, -111887.98, -141994.06, -143090.66, -0.00, -0.05, 1.01
56, -6105.78, -6095.01, -6185.96, -6125.92, -119870.13, -111886.08, -141992.22, -143088.69, -0.00, -0.05, 1.01
57, -6104.64, -6093.85, -6184.84, -6124.82, -119868.91, -111884.88, -141990.95, -143087.50, -0.00, -0.05, 1.01
58, -6107.30, -6096.53, -6187.57, -6127.46, -119871.59, -111887.51, -141993.59, -143090.19, -0.00, -0.05, 1.01
59, -6108.60, -6097.69, -6188.84, -6128.69, -119872.78, -111888.72, -141994.89, -143091.48, -0.00, -0.05, 1.01
60, -6105.87, -6095.05, -6186.18, -6125.94, -119870.08, -111885.92, -141992.16, -143088.63, -0.01, -0.06, 1.01
61, -6107.41, -6096.64, -6187.66, -6127.48, -119871.53, -111887.45, -141993.61, -143090.03, -0.01, -0.06, 1.01
62, -6109.51, -6098.61, -6189.69, -6129.56, -119873.56, -111889.56, -141995.69, -143092.16, -0.01, -0.06, 1.01
63, -6108.17, -6097.20, -6188.28, -6128.22, -119872.18, -111888.11, -141994.30, -143090.81, -0.01, -0.06, 1.01
64, -6107.93, -6097.04, -6188.06, -6128.04, -119872.00, -111887.89, -141994.06, -143090.55, -0.01, -0.06, 1.01
65, -6108.55, -6097.76, -6188.82, -6128.74, -119872.67, -111888.56, -141994.69, -143091.23, -0.01, -0.06, 1.01
66, -6107.59, -6096.84, -6187.90, -6127.80, -119871.64, -111887.62, -141993.70, -143090.31, -0.01, -0.06, 1.01
67, -6106.81, -6095.90, -6187.07, -6126.86, -119870.77, -111886.81, -141992.83, -143089.47, -0.01, -0.06, 1.01
68, -6109.04, -6098.14, -6189.33, -6129.07, -119873.05, -111888.96, -141995.00, -143091.64, -0.01, -0.06, 1.01
69, -6107.21, -6096.30, -6187.43, -6127.26, -119871.06, -111887.13, -141993.19, -143089.81, -0.01, -0.06, 1.01
70, -6107.61, -6096.75, -6187.83, -6127.75, -119871.44, -111887.60, -141993.61, -143090.20, -0.01, -0.05, 1.01
71, -6107.97, -6097.20, -6188.30, -6128.22, -119871.89, -111888.07, -141994.06, -143090.63, -0.01, -0.05, 1.01
72, -6108.89, -6098.07, -6189.15, -6129.09, -119872.78, -111888.96, -141994.97, -143091.50, -0.01, -0.05, 1.01
73, -6110.34, -6099.54, -6190.65, -6130.57, -119874.23, -111890.35, -141996.31, -143092.89, -0.01, -0.05, 1.01
74, -6109.87, -6099.17, -6190.20, -6130.06, -119873.67, -111889.84, -141995.70, -143092.38, -0.01, -0.05, 1.01
75, -6111.44, -6100.71, -6191.75, -6131.66, -119875.22, -111891.42, -141997.36, -143094.00, -0.00, -0.06, 1.01
76, -6110.16, -6099.37, -6190.54, -6130.48, -119874.05, -111890.28, -141996.20, -143092.75, -0.00, -0.06, 1.01
77, -6108.24, -6097.40, -6188.66, -6128.45, -119872.11, -111888.23, -141994.22, -143090.72, -0.00, -0.06, 1.01
78, -6107.66, -6096.80, -6187.95, -6127.78, -119871.30, -111887.38, -141993.34, -143090.00, -0.00, -0.06, 1.01
79, -6106.88, -6096.06, -6187.14, -6127.04, -119870.45, -111886.59, -141992.63, -143089.36, -0.00, -0.06, 1.01
80, -6105.65, -6094.85, -6186.00, -6125.88, -119869.25, -111885.52, -141991.59, -143088.13, -0.00, -0.05, 1.01
81, -6105.27, -6094.47, -6185.62, -6125.52, -119868.84, -111885.14, -141991.19, -143087.69, -0.00, -0.05, 1.01
82, -6103.39, -6092.62, -6183.77, -6123.64, -119866.97, -111883.22, -141989.20, -143085.89, -0.00, -0.05, 1.01
83, -6104.53, -6093.76, -6184.86, -6124.76, -119868.09, -111884.34, -141990.30, -143086.94, -0.00, -0.05, 1.01
84, -6107.41, -6096.59, -6187.66, -6127.53, -119870.88, -111887.24, -141993.28, -143089.77, -0.00, -0.05, 1.01
85, -6107.37, -6096.55, -6187.61, -6127.46, -119870.84, -111887.24, -141993.20, -143089.73, 0.00, -0.05, 1.01
86, -6101.96, -6091.23, -6182.29, -6122.17, -119865.38, -111881.72, -141987.73, -143084.28, 0.00, -0.05, 1.01
87, -6102.72, -6092.01, -6183.07, -6122.86, -119866.12, -111882.50, -141988.53, -143085.05, 0.00, -0.05, 1.01
88, -6105.20, -6094.56, -6185.53, -6125.38, -119868.67, -111884.96, -141991.06, -143087.66, 0.00, -0.05, 1.01
89, -6103.84, -6093.13, -6184.26, -6124.09, -119867.33, -111883.64, -141989.67, -143086.41, 0.00, -0.05, 1.01
90, -6103.05, -6092.35, -6183.48, -6123.30, -119866.43, -111882.81, -141988.83, -143085.53, -0.00, -0.05, 1.02
91, -6104.15, -6093.53, -6184.71, -6124.51, -119867.69, -111884.02, -141989.98, -143086.66, -0.00, -0.05, 1.02
92, -6103.72, -6093.06, -6184.26, -6124.06, -119867.30, -111883.66, -141989.61, -143086.28, -0.00, -0.05, 1.02
93, -6102.25, -6091.52, -6182.81, -6122.63, -119865.80, -111882.19, -141988.22, -143084.86, -0.00, -0.05, 1.02
94, -6103.48, -6092.68, -6184.01, -6123.91, -119866.91, -111883.42, -141989.42, -143086.09, -0.00, -0.05, 1.02
95, -6102.05, -6091.23, -6182.54, -6122.39, -119865.45, -111881.95, -141987.84, -143084.55, -0.00, -0.05, 1.01
96, -6102.96, -6092.10, -6183.48, -6123.22, -119866.45, -111882.88, -141988.83, -143085.48, -0.00, -0.05, 1.01
97, -6103.93, -6093.06, -6184.55, -6124.29, -119867.53, -111883.91, -141990.03, -143086.52, -0.00, -0.05, 1.01
98, -6104.80, -6094.11, -6185.40, -6125.14, -119868.36, -111884.70, -141990.86, -143087.41, -0.00, -0.05, 1.01
99, -6104.91, -6094.27, -6185.44, -6125.20, -119868.38, -111884.78, -141990.88, -143087.53, -0.00, -0.05, 1.01
100, -6105.98, -6095.23, -6186.45, -6126.19, -119869.41, -111885.81, -141991.95, -143088.58, -0.00, -0.04, 1.01
101, -6105.89, -6095.05, -6186.34, -6126.10, -119869.27, -111885.70, -141991.83, -143088.38, -0.00, -0.04, 1.01
102, -6108.22, -6097.53, -6188.68, -6128.38, -119871.59, -111888.07, -141994.19, -143090.77, -0.00, -0.04, 1.01
103, -6107.32, -6096.66, -6187.77, -6127.57, -119870.66, -111887.13, -141993.19, -143089.81, -0.00, -0.04, 1.01
104, -6108.37, -6097.49, -6188.77, -6128.51, -119871.66, -111888.09, -141994.19, -143090.83, -0.00, -0.04, 1.01
105, -6108.46, -6097.62, -6188.88, -6128.60, -119871.80, -111888.18, -141994.34, -143090.92, -0.00, -0.04, 1.01
106, -6109.94, -6099.25, -6190.34, -6130.21, -119873.27, -111889.72, -141995.83, -143092.48, -0.00, -0.04, 1.01
107, -6108.82, -6098.16, -6189.18, -6129.09, -119872.09, -111888.58, -141994.64, -143091.33, -0.00, -0.04, 1.01
108, -6107.86, -6097.09, -6188.24, -6128.00, -119871.04, -111887.58, -141993.72, -143090.30, -0.00, -0.04, 1.01
109, -6109.49, -6098.70, -6189.94, -6129.63, -119872.78, -111889.27, -141995.36, -143092.05, -0.00, -0.04, 1.01
110, -6106.14, -6095.23, -6186.56, -6126.30, -119869.34, -111885.88, -141991.95, -143088.59, -0.00, -0.05, 1.01
111, -6105.56, -6094.69, -6185.96, -6125.76, -119868.76, -111885.25, -141991.33, -143088.02, -0.00, -0.05, 1.01
112, -6106.30, -6095.45, -6186.60, -6126.46, -119869.36, -111885.95, -141991.95, -143088.73, -0.00, -0.05, 1.01
113, -6106.09, -6095.37, -6186.49, -6126.41, -119869.34, -111885.95, -141991.89, -143088.58, -0.00, -0.05, 1.01
114, -6105.78, -6095.07, -6186.18, -6126.12, -119869.05, -111885.50, -141991.59, -143088.36, -0.00, -0.05, 1.01
115, -6104.17, -6093.55, -6184.71, -6124.51, -119867.38, -111883.87, -141989.98, -143086.78, -0.01, -0.05, 1.00
116, -6103.90, -6093.17, -6184.48, -6124.18, -119867.13, -111883.62, -141989.77, -143086.50, -0.01, -0.05, 1.00
117, -6106.41, -6095.75, -6186.98, -6126.70, -119869.74, -111886.15, -141992.38, -143089.02, -0.01, -0.05, 1.00
118, -6106.05, -6095.41, -6186.72, -6126.46, -119869.34, -111885.84, -141992.05, -143088.67, -0.01, -0.05, 1.00
119, -6103.32, -6092.82, -6184.08, -6123.84, -119866.70, -111883.20, -141989.45, -143086.05, -0.01, -0.05, 1.00
120, -6102.58, -6092.12, -6183.32, -6123.06, -119865.85, -111882.34, -141988.58, -143085.30, -0.01, -0.05, 1.01
121, -6104.02, -6093.44, -6184.64, -6124.51, -119867.28, -111883.87, -141989.97, -143086.67, -0.01, -0.05, 1.01
122, -6105.76, -6095.19, -6186.45, -6126.32, -119869.09, -111885.70, -141991.75, -143088.52, -0.01, -0.05, 1.01
123, -6108.37, -6097.69, -6189.04, -6128.80, -119871.64, -111888.27, -141994.41, -143091.03, -0.01, -0.05, 1.01
124, -6108.04, -6097.38, -6188.75, -6128.51, -119871.30, -111887.94, -141994.02, -143090.70, -0.01, -0.05, 1.01
125, -6105.07, -6094.36, -6185.71, -6125.50, -119868.20, -111884.94, -141991.02, -143087.70, -0.01, -0.05, 1.01
126, -6104.46, -6093.67, -6185.02, -6124.82, -119867.62, -111884.31, -141990.41, -143087.08, -0.00, -0.05, 1.01
127, -6103.55, -6092.84, -6184.19, -6123.95, -119866.84, -111883.44, -141989.47, -143086.23, -0.00, -0.05, 1.01
128, -6102.61, -6091.99, -6183.32, -6123.08, -119865.85, -111882.57, -141988.48, -143085.41, -0.00, -0.05, 1.01
129, -6101.67, -6091.05, -6182.38, -6122.21, -119864.94, -111881.54, -141987.66, -143084.42, -0.00, -0.05, 1.01
130, -6104.48, -6093.89, -6185.08, -6124.98, -119867.71, -111884.31, -141990.44, -143087.25, -0.00, -0.05, 1.01
131, -6106.54, -6095.92, -6187.12, -6127.06, -119869.83, -111886.44, -141992.52, -143089.36, -0.01, -0.04, 1.01
132, -6105.62, -6094.92, -6186.20, -6125.99, -119868.80, -111885.54, -141991.52, -143088.39, -0.01, -0.04, 1.01
133, -6105.69, -6095.03, -6186.27, -6126.03, -119868.84, -111885.43, -141991.59, -143088.39, -0.01, -0.04, 1.01
134, -6108.98, -6098.16, -6189.47, -6129.38, -119872.11, -111888.72, -141994.95, -143091.75, -0.01, -0.04, 1.01
135, -6108.04, -6097.20, -6188.50, -6128.45, -119871.15, -111887.71, -141993.97, -143090.70, -0.01, -0.04, 1.01
136, -6106.43, -6095.77, -6187.03, -6126.95, -119869.65, -111886.34, -141992.52, -143089.14, -0.01, -0.05, 1.01
137, -6107.08, -6096.42, -6187.70, -6127.60, -119870.26, -111886.93, -141993.13, -143089.78, -0.01, -0.05, 1.01
138, -6107.61, -6096.97, -6188.33, -6128.16, -119870.84, -111887.46, -141993.72, -143090.36, -0.01, -0.05, 1.01
139, -6109.31, -6098.65, -6190.07, -6129.79, -119872.47, -111889.27, -141995.39, -143092.08, -0.01, -0.05, 1.01
140, -6107.10, -6096.37, -6187.79, -6127.55, -119870.19, -111887.02, -141993.05, -143089.83, -0.01, -0.05, 1.01
141, -6107.57, -6096.93, -6188.19, -6127.98, -119870.59, -111887.40, -141993.41, -143090.23, -0.01, -0.05, 1.01
142, -6109.38, -6098.70, -6189.98, -6129.76, -119872.38, -111889.16, -141995.31, -143092.06, -0.01, -0.05, 1.01
143, -6107.64, -6096.97, -6188.28, -6128.04, -119870.68, -111887.40, -141993.63, -143090.34, -0.01, -0.05, 1.01
144, -6106.59, -6096.01, -6187.23, -6127.08, -119869.65, -111886.33, -141992.61, -143089.31, -0.01, -0.05, 1.01
145, -6107.68, -6097.15, -6188.44, -6128.18, -119870.81, -111887.55, -141993.61, -143090.47, -0.01, -0.05, 1.01
146, -6109.07, -6098.58, -6189.82, -6129.63, -119872.22, -111889.01, -141995.06, -143091.89, -0.01, -0.04, 1.01
147, -6108.58, -6098.07, -6189.33, -6129.18, -119871.66, -111888.52, -141994.70, -143091.48, -0.01, -0.04, 1.01
148, -6106.85, -6096.26, -6187.57, -6127.33, -119869.92, -111886.80, -141992.89, -143089.77, -0.01, -0.04, 1.01
149, -6105.29, -6094.74, -6185.98, -6125.83, -119868.24, -111885.07, -141991.27, -143088.02, -0.01, -0.04, 1.01
150, -6106.32, -6095.75, -6187.03, -6126.84, -119869.27, -111886.05, -141992.27, -143088.95, -0.01, -0.04, 1.01
151, -6104.53, -6093.98, -6185.38, -6125.09, -119867.62, -111884.42, -141990.66, -143087.34, -0.01, -0.05, 1.01
152, -6107.44, -6096.97, -6188.28, -6127.98, -119870.52, -111887.38, -141993.66, -143090.31, -0.01, -0.05, 1.01
153, -6108.20, -6097.76, -6189.02, -6128.78, -119871.26, -111888.16, -141994.25, -143091.11, -0.01, -0.05, 1.01
154, -6107.97, -6097.49, -6188.80, -6128.56, -119871.09, -111887.94, -141994.13, -143090.95, -0.01, -0.05, 1.01
155, -6106.97, -6096.53, -6187.83, -6127.62, -119870.14, -111887.09, -141993.39, -143090.09, -0.01, -0.05, 1.01
156, -6105.36, -6094.87, -6186.11, -6125.85, -119868.42, -111885.30, -141991.67, -143088.31, -0.01, -0.05, 1.01
157, -6104.53, -6094.18, -6185.31, -6125.16, -119867.53, -111884.47, -141990.72, -143087.45, -0.01, -0.05, 1.01
158, -6105.38, -6095.01, -6186.11, -6125.94, -119868.45, -111885.27, -141991.53, -143088.31, -0.01, -0.05, 1.01
159, -6106.36, -6095.92, -6187.10, -6126.84, -119869.41, -111886.21, -141992.67, -143089.31, -0.01, -0.05, 1.01
160, -6105.54, -6095.14, -6186.36, -6126.12, -119868.69, -111885.50, -141991.94, -143088.67, -0.01, -0.05, 1.01
161, -6106.07, -6095.68, -6186.87, -6126.64, -119869.09, -111886.03, -141992.33, -143089.06, -0.01, -0.05, 1.01
162, -6106.30, -6095.88, -6186.98, -6126.75, -119869.18, -111886.08, -141992.42, -143089.19, -0.01, -0.05, 1.01
163, -6106.09, -6095.79, -6186.78, -6126.66, -119869.20, -111886.15, -141992.42, -143089.25, -0.01, -0.05, 1.01
164, -6104.64, -6094.34, -6185.51, -6125.23, -119867.80, -111884.78, -141991.03, -143087.86, -0.01, -0.05, 1.01
166, -6105.29, -6094.92, -6186.05, -6125.81, -119868.29, -111885.30, -141991.55, -143088.31, -0.00, -0.04, 1.01
167, -6102.70, -6092.28, -6183.48, -6123.17, -119865.72, -111882.73, -141988.98, -143085.78, -0.00, -0.04, 1.01
168, -6102.70, -6092.17, -6183.39, -6123.28, -119865.61, -111882.70, -141988.98, -143085.83, -0.00, -0.04, 1.01
169, -6102.41, -6091.95, -6183.12, -6122.95, -119865.34, -111882.34, -141988.61, -143085.47, -0.00, -0.04, 1.01
170, -6103.95, -6093.44, -6184.59, -6124.44, -119866.88, -111883.84, -141990.08, -143086.83, -0.00, -0.04, 1.01
171, -6102.94, -6092.50, -6183.70, -6123.62, -119865.92, -111882.97, -141989.23, -143086.05, -0.01, -0.05, 1.01
172, -6102.27, -6091.79, -6183.16, -6122.95, -119865.38, -111882.37, -141988.69, -143085.52, -0.01, -0.05, 1.01
173, -6102.63, -6092.21, -6183.39, -6123.22, -119865.65, -111882.68, -141988.98, -143085.84, -0.01, -0.05, 1.01
174, -6102.09, -6091.74, -6182.87, -6122.68, -119865.09, -111882.13, -141988.31, -143085.27, -0.01, -0.05, 1.01
175, -6102.14, -6091.70, -6182.94, -6122.75, -119865.09, -111882.23, -141988.52, -143085.30, -0.01, -0.05, 1.01
176, -6103.23, -6092.68, -6183.92, -6123.91, -119866.19, -111883.35, -141989.70, -143086.50, -0.00, -0.05, 1.01
177, -6103.90, -6093.40, -6184.59, -6124.49, -119866.97, -111883.98, -141990.25, -143087.09, -0.00, -0.05, 1.01
178, -6102.29, -6091.72, -6182.98, -6122.81, -119865.25, -111882.30, -141988.53, -143085.41, -0.00, -0.05, 1.01
179, -6103.12, -6092.57, -6183.86, -6123.69, -119866.03, -111883.13, -141989.42, -143086.23, -0.00, -0.05, 1.01
180, -6105.76, -6095.16, -6186.58, -6126.21, -119868.69, -111885.85, -141992.16, -143089.00, -0.00, -0.05, 1.01
181, -6107.75, -6097.15, -6188.53, -6128.20, -119870.68, -111887.80, -141994.17, -143090.98, -0.01, -0.05, 1.02
182, -6108.28, -6097.71, -6189.00, -6128.87, -119871.22, -111888.41, -141994.64, -143091.50, -0.01, -0.05, 1.02
183, -6107.86, -6097.29, -6188.59, -6128.51, -119870.75, -111887.95, -141994.19, -143091.08, -0.01, -0.05, 1.02
184, -6107.64, -6097.02, -6188.39, -6128.22, -119870.50, -111887.66, -141994.08, -143090.78, -0.01, -0.05, 1.02
185, -6107.12, -6096.59, -6187.88, -6127.75, -119870.03, -111887.13, -141993.52, -143090.31, -0.01, -0.05, 1.02
186, -6107.59, -6097.09, -6188.33, -6128.29, -119870.57, -111887.64, -141993.94, -143090.86, -0.00, -0.05, 1.01
187, -6105.67, -6095.23, -6186.49, -6126.37, -119868.60, -111885.77, -141991.98, -143089.00, -0.00, -0.05, 1.01
188, -6103.68, -6093.24, -6184.48, -6124.29, -119866.61, -111883.77, -141990.03, -143086.98, -0.00, -0.05, 1.01
189, -6103.99, -6093.47, -6184.77, -6124.69, -119866.97, -111884.16, -141990.44, -143087.23, -0.00, -0.05, 1.01
190, -6102.99, -6092.48, -6183.65, -6123.64, -119865.90, -111883.02, -141989.27, -143086.23, -0.00, -0.05, 1.01
191, -6103.52, -6093.06, -6184.21, -6124.18, -119866.34, -111883.58, -141989.77, -143086.77, -0.00, -0.05, 1.01
192, -6106.50, -6096.04, -6187.23, -6127.28, -119869.36, -111886.70, -141992.94, -143089.81, -0.00, -0.05, 1.01
193, -6107.70, -6097.24, -6188.53, -6128.54, -119870.59, -111887.91, -141994.28, -143091.13, -0.00, -0.05, 1.01
194, -6107.41, -6096.91, -6188.21, -6128.16, -119870.28, -111887.55, -141993.83, -143090.81, -0.00, -0.05, 1.01
195, -6105.65, -6095.19, -6186.43, -6126.37, -119868.47, -111885.77, -141992.05, -143088.95, -0.00, -0.05, 1.01
196, -6104.73, -6094.27, -6185.55, -6125.47, -119867.57, -111884.80, -141991.22, -143088.06, -0.01, -0.06, 1.01
197, -6104.17, -6093.62, -6184.97, -6124.87, -119866.97, -111884.20, -141990.72, -143087.50, -0.01, -0.06, 1.01
198, -6105.20, -6094.67, -6186.07, -6125.92, -119868.06, -111885.41, -141991.73, -143088.58, -0.01, -0.06, 1.01
199, -6105.96, -6095.41, -6186.81, -6126.64, -119868.73, -111886.05, -141992.38, -143089.31, -0.01, -0.06, 1.01
200, -6104.80, -6094.23, -6185.62, -6125.43, -119867.53, -111884.88, -141991.17, -143088.16, -0.01, -0.06, 1.01
201, -6102.70, -6092.15, -6183.63, -6123.48, -119865.61, -111882.95, -141989.34, -143086.08, -0.01, -0.05, 1.01
202, -6102.94, -6092.44, -6183.88, -6123.80, -119865.85, -111883.13, -141989.61, -143086.36, -0.01, -0.05, 1.01
203, -6102.63, -6092.26, -6183.59, -6123.53, -119865.56, -111882.86, -141989.25, -143086.13, -0.01, -0.05, 1.01
204, -6103.84, -6093.35, -6184.59, -6124.58, -119866.59, -111883.82, -141990.28, -143087.13, -0.01, -0.05, 1.01
205, -6103.34, -6092.86, -6184.12, -6124.11, -119866.16, -111883.44, -141989.97, -143086.67, -0.01, -0.05, 1.01
206, -6102.96, -6092.50, -6183.88, -6123.77, -119865.80, -111883.15, -141989.58, -143086.41, -0.01, -0.04, 1.01
207, -6104.33, -6093.89, -6185.26, -6125.14, -119867.13, -111884.49, -141990.81, -143087.73, -0.01, -0.04, 1.01
208, -6105.92, -6095.52, -6186.85, -6126.70, -119868.65, -111885.99, -141992.41, -143089.41, -0.01, -0.04, 1.01
209, -6107.01, -6096.57, -6187.92, -6127.82, -119869.74, -111887.04, -141993.70, -143090.45, -0.01, -0.04, 1.01
210, -6107.26, -6096.68, -6188.21, -6128.04, -119869.90, -111887.27, -141993.86, -143090.63, -0.01, -0.04, 1.01
211, -6105.02, -6094.54, -6186.02, -6125.88, -119867.75, -111885.16, -141991.67, -143088.48, -0.00, -0.04, 1.01
212, -6104.46, -6094.00, -6185.44, -6125.29, -119867.20, -111884.60, -141991.06, -143087.97, -0.00, -0.04, 1.01
213, -6104.33, -6093.87, -6185.26, -6125.09, -119867.06, -111884.42, -141990.92, -143087.86, -0.00, -0.04, 1.01
214, -6106.30, -6095.86, -6187.34, -6127.19, -119869.02, -111886.48, -141993.03, -143089.84, -0.00, -0.04, 1.01
215, -6105.09, -6094.61, -6186.11, -6125.99, -119867.71, -111885.23, -141991.67, -143088.55, -0.00, -0.04, 1.01
216, -6103.86, -6093.40, -6184.88, -6124.80, -119866.52, -111883.93, -141990.39, -143087.25, -0.01, -0.05, 1.01
217, -6102.45, -6091.99, -6183.59, -6123.39, -119865.16, -111882.59, -141989.00, -143085.88, -0.01, -0.05, 1.01
218, -6102.27, -6091.83, -6183.30, -6123.30, -119865.05, -111882.46, -141988.94, -143085.83, -0.01, -0.05, 1.01
219, -6103.68, -6093.35, -6184.82, -6124.85, -119866.48, -111883.87, -141990.39, -143087.33, -0.01, -0.05, 1.01
220, -6102.56, -6092.17, -6183.59, -6123.62, -119865.16, -111882.59, -141989.05, -143086.03, -0.01, -0.05, 1.01
221, -6103.59, -6093.15, -6184.62, -6124.65, -119866.23, -111883.59, -141990.09, -143087.06, -0.01, -0.05, 1.01
222, -6103.77, -6093.35, -6184.82, -6124.76, -119866.52, -111883.91, -141990.38, -143087.39, -0.01, -0.05, 1.01
223, -6104.40, -6093.98, -6185.33, -6125.32, -119867.10, -111884.49, -141990.97, -143087.95, -0.01, -0.05, 1.01
224, -6105.04, -6094.74, -6185.98, -6125.99, -119867.75, -111885.14, -141991.59, -143088.42, -0.01, -0.05, 1.01
225, -6105.76, -6095.52, -6186.78, -6126.79, -119868.58, -111885.99, -141992.41, -143089.25, -0.01, -0.05, 1.01
226, -6106.70, -6096.37, -6187.77, -6127.78, -119869.59, -111886.91, -141993.44, -143090.28, -0.00, -0.05, 1.01
227, -6106.74, -6096.42, -6187.90, -6127.82, -119869.52, -111886.95, -141993.31, -143090.30, -0.00, -0.05, 1.01
228, -6106.52, -6096.24, -6187.72, -6127.57, -119869.14, -111886.68, -141992.94, -143089.97, -0.00, -0.05, 1.01
229, -6104.53, -6094.27, -6185.73, -6125.54, -119867.13, -111884.65, -141991.02, -143088.02, -0.00, -0.05, 1.01
230, -6103.90, -6093.58, -6185.13, -6124.98, -119866.52, -111884.02, -141990.48, -143087.38, -0.00, -0.05, 1.01
231, -6102.03, -6091.72, -6183.21, -6123.10, -119864.60, -111882.10, -141988.53, -143085.48, -0.00, -0.05, 1.01
232, -6102.18, -6091.90, -6183.27, -6123.24, -119864.69, -111882.26, -141988.53, -143085.67, -0.00, -0.05, 1.01
233, -6101.98, -6091.63, -6183.12, -6122.99, -119864.49, -111881.95, -141988.38, -143085.38, -0.00, -0.05, 1.01
234, -6102.90, -6092.55, -6184.12, -6123.95, -119865.54, -111882.97, -141989.50, -143086.39, -0.00, -0.05, 1.01
235, -6102.58, -6092.28, -6183.88, -6123.73, -119865.20, -111882.70, -141989.23, -143086.19, -0.00, -0.05, 1.01
236, -6101.00, -6090.60, -6182.25, -6122.05, -119863.48, -111881.07, -141987.42, -143084.47, -0.00, -0.05, 1.01
237, -6098.87, -6088.44, -6180.10, -6119.84, -119861.23, -111878.99, -141985.31, -143082.30, -0.00, -0.05, 1.01
238, -6101.33, -6090.94, -6182.56, -6122.39, -119863.70, -111881.52, -141987.94, -143084.89, -0.00, -0.05, 1.01
239, -6102.94, -6092.53, -6184.21, -6124.02, -119865.27, -111883.09, -141989.50, -143086.44, -0.00, -0.05, 1.01
240, -6102.96, -6092.62, -6184.30, -6124.13, -119865.34, -111882.97, -141989.50, -143086.50, -0.00, -0.05, 1.01
241, -6103.30, -6093.04, -6184.66, -6124.53, -119865.70, -111883.40, -141989.81, -143086.86, -0.00, -0.05, 1.01
242, -6104.33, -6094.02, -6185.71, -6125.52, -119866.86, -111884.36, -141990.84, -143087.86, -0.01, -0.05, 1.01
243, -6106.36, -6095.99, -6187.79, -6127.53, -119868.89, -111886.48, -141992.92, -143089.88, -0.01, -0.05, 1.01
244, -6106.03, -6095.63, -6187.41, -6127.28, -119868.52, -111886.13, -141992.58, -143089.47, -0.01, -0.05, 1.01
245, -6103.99, -6093.58, -6185.35, -6125.16, -119866.37, -111883.87, -141990.41, -143087.33, -0.01, -0.05, 1.01
246, -6103.79, -6093.40, -6185.15, -6124.91, -119866.14, -111883.73, -141990.22, -143087.14, -0.01, -0.05, 1.01
247, -6104.78, -6094.23, -6186.14, -6125.85, -119866.91, -111884.76, -141991.17, -143088.08, -0.00, -0.05, 1.01
248, -6106.83, -6096.35, -6188.26, -6128.00, -119869.07, -111886.81, -141993.23, -143090.23, -0.00, -0.05, 1.01
249, -6108.11, -6097.73, -6189.51, -6129.27, -119870.34, -111888.07, -141994.39, -143091.44, -0.00, -0.05, 1.01
250, -6108.04, -6097.78, -6189.51, -6129.25, -119870.34, -111888.11, -141994.50, -143091.39, -0.00, -0.05, 1.01
251, -6109.27, -6098.83, -6190.67, -6130.39, -119871.48, -111889.25, -141995.64, -143092.63, -0.00, -0.05, 1.01
252, -6110.32, -6099.81, -6191.63, -6131.28, -119872.36, -111890.17, -141996.47, -143093.52, -0.01, -0.05, 1.02
253, -6108.73, -6098.27, -6190.07, -6129.72, -119870.61, -111888.45, -141994.80, -143091.75, -0.01, -0.05, 1.02
254, -6109.00, -6098.58, -6190.38, -6130.08, -119870.93, -111888.74, -141995.08, -143092.08, -0.01, -0.05, 1.02
255, -6109.22, -6098.85, -6190.70, -6130.44, -119871.22, -111889.07, -141995.44, -143092.44, -0.01, -0.05, 1.02
0, -6110.12, -6099.75, -6191.59, -6131.37, -119872.09, -111889.95, -141996.20, -143093.20, -0.01, -0.05, 1.02
1, -6110.34, -6099.90, -6191.63, -6131.55, -119872.18, -111889.97, -141996.31, -143093.31, -0.01, -0.04, 1.01
2, -6109.78, -6099.32, -6191.12, -6131.04, -119871.59, -111889.50, -141995.84, -143092.89, -0.01, -0.04, 1.01
3, -6108.96, -6098.45, -6190.34, -6130.21, -119870.75, -111888.63, -141995.06, -143092.00, -0.01, -0.04, 1.01
4, -6106.65, -6096.13, -6187.95, -6127.80, -119868.31, -111886.16, -141992.69, -143089.63, -0.01, -0.04, 1.01
5, -6107.35, -6096.80, -6188.57, -6128.36, -119868.80, -111886.75, -141993.23, -143090.23, -0.01, -0.04, 1.01
6, -6106.16, -6095.70, -6187.34, -6127.13, -119867.62, -111885.50, -141991.95, -143088.95, -0.01, -0.05, 1.01
7, -6105.71, -6095.34, -6186.94, -6126.86, -119867.30, -111885.09, -141991.59, -143088.55, -0.01, -0.05, 1.01
8, -6105.54, -6095.14, -6186.90, -6126.86, -119867.20, -111885.03, -141991.39, -143088.47, -0.01, -0.05, 1.01
9, -6103.86, -6093.53, -6185.22, -6125.18, -119865.38, -111883.35, -141989.72, -143086.81, -0.01, -0.05, 1.01
10, -6103.90, -6093.62, -6185.38, -6125.23, -119865.38, -111883.35, -141989.72, -143086.83, -0.01, -0.05, 1.01
11, -6103.48, -6093.06, -6184.77, -6124.71, -119864.98, -111882.79, -141989.27, -143086.23, -0.01, -0.04, 1.01
12, -6103.05, -6092.66, -6184.37, -6124.29, -119864.53, -111882.37, -141988.80, -143085.83, -0.01, -0.04, 1.01
13, -6103.23, -6092.93, -6184.64, -6124.47, -119864.66, -111882.63, -141989.05, -143086.05, -0.01, -0.04, 1.01
14, -6104.57, -6094.29, -6185.98, -6125.85, -119865.96, -111883.93, -141990.38, -143087.33, -0.01, -0.04, 1.01
15, -6104.57, -6094.29, -6185.93, -6125.88, -119866.05, -111884.00, -141990.25, -143087.34, -0.01, -0.04, 1.01
16, -6105.89, -6095.66, -6187.23, -6127.26, -119867.38, -111885.25, -141991.59, -143088.63, -0.01, -0.05, 1.01
17, -6105.96, -6095.79, -6187.43, -6127.31, -119867.39, -111885.32, -141991.70, -143088.70, -0.01, -0.05, 1.01
18, -6106.85, -6096.59, -6188.26, -6128.09, -119868.13, -111886.08, -141992.38, -143089.52, -0.01, -0.05, 1.01
19, -6107.97, -6097.65, -6189.31, -6129.18, -119869.18, -111887.09, -141993.52, -143090.47, -0.01, -0.05, 1.01
20, -6107.41, -6097.02, -6188.77, -6128.67, -119868.60, -111886.57, -141992.95, -143089.94, -0.01, -0.05, 1.01
21, -6104.37, -6094.02, -6185.80, -6125.70, -119865.52, -111883.58, -141989.83, -143086.83, -0.01, -0.05, 1.01
22, -6105.18, -6094.92, -6186.65, -6126.39, -119866.23, -111884.29, -141990.61, -143087.59, -0.01, -0.05, 1.01
23, -6103.86, -6093.64, -6185.38, -6125.07, -119864.89, -111882.97, -141989.36, -143086.25, -0.01, -0.05, 1.01
24, -6102.72, -6092.46, -6184.19, -6124.06, -119863.80, -111881.81, -141988.13, -143085.14, -0.01, -0.05, 1.01
25, -6105.22, -6094.90, -6186.60, -6126.46, -119866.23, -111884.24, -141990.55, -143087.59, -0.01, -0.05, 1.01
26, -6105.76, -6095.48, -6187.10, -6126.99, -119866.66, -111884.72, -141991.03, -143088.08, -0.01, -0.05, 1.02
27, -6104.78, -6094.47, -6186.09, -6125.94, -119865.63, -111883.66, -141990.03, -143086.98, -0.01, -0.05, 1.02
28, -6103.72, -6093.44, -6185.11, -6124.91, -119864.55, -111882.59, -141988.95, -143085.97, -0.01, -0.05, 1.02
29, -6105.16, -6094.85, -6186.54, -6126.32, -119865.96, -111883.91, -141990.28, -143087.39, -0.01, -0.05, 1.02
30, -6104.53, -6094.29, -6185.98, -6125.76, -119865.31, -111883.35, -141989.70, -143086.78, -0.01, -0.05, 1.02
31, -6103.72, -6093.51, -6185.17, -6124.85, -119864.29, -111882.55, -141988.78, -143085.73, -0.01, -0.05, 1.01
32, -6103.84, -6093.69, -6185.40, -6125.09, -119864.49, -111882.73, -141989.05, -143085.97, -0.01, -0.05, 1.01
33, -6102.07, -6091.92, -6183.65, -6123.39, -119862.77, -111880.94, -141987.34, -143084.31, -0.01, -0.05, 1.01
34, -6101.98, -6091.90, -6183.59, -6123.42, -119862.66, -111880.80, -141987.13, -143084.17, -0.01, -0.05, 1.01
35, -6103.64, -6093.58, -6185.26, -6125.12, -119864.29, -111882.52, -141988.73, -143085.77, -0.01, -0.05, 1.01
36, -6106.72, -6096.64, -6188.28, -6128.00, -119867.23, -111885.48, -141991.75, -143088.75, -0.00, -0.05, 1.01
37, -6107.30, -6097.31, -6188.84, -6128.60, -119867.77, -111886.01, -141992.31, -143089.36, -0.00, -0.05, 1.01
38, -6105.98, -6095.97, -6187.57, -6127.26, -119866.45, -111884.60, -141991.02, -143088.02, -0.00, -0.05, 1.01
39, -6107.23, -6097.24, -6188.88, -6128.54, -119867.64, -111885.88, -141992.11, -143089.19, -0.00, -0.05, 1.01
40, -6108.02, -6098.05, -6189.69, -6129.34, -119868.38, -111886.70, -141992.89, -143089.97, -0.00, -0.05, 1.01
41, -6109.27, -6099.28, -6190.94, -6130.57, -119869.65, -111887.94, -141994.13, -143091.22, -0.00, -0.05, 1.01
42, -6107.64, -6097.62, -6189.29, -6128.98, -119867.91, -111886.21, -141992.38, -143089.47, -0.00, -0.05, 1.01
43, -6108.15, -6098.16, -6189.89, -6129.52, -119868.38, -111886.70, -141992.78, -143089.94, -0.00, -0.05, 1.01
44, -6109.13, -6099.12, -6190.85, -6130.50, -119869.25, -111887.58, -141993.72, -143090.83, -0.00, -0.05, 1.01
45, -6112.26, -6102.29, -6193.96, -6133.54, -119872.31, -111890.64, -141996.81, -143093.89, -0.00, -0.05, 1.01
46, -6109.38, -6099.43, -6191.03, -6130.68, -119869.41, -111887.76, -141993.88, -143090.97, -0.01, -0.05, 1.02
47, -6107.66, -6097.76, -6189.24, -6128.96, -119867.59, -111885.85, -141992.06, -143089.09, -0.01, -0.05, 1.02
48, -6106.09, -6096.19, -6187.86, -6127.53, -119865.95, -111884.31, -141990.56, -143087.61, -0.01, -0.05, 1.02
49, -6105.85, -6095.90, -6187.59, -6127.31, -119865.61, -111884.00, -141990.25, -143087.28, -0.01, -0.05, 1.02
50, -6106.43, -6096.48, -6188.24, -6127.82, -119866.21, -111884.49, -141990.75, -143087.80, -0.01, -0.05, 1.02
51, -6106.47, -6096.57, -6188.24, -6127.80, -119866.16, -111884.52, -141990.61, -143087.86, -0.00, -0.04, 1.01
52, -6104.10, -6094.20, -6185.89, -6125.43, -119863.75, -111882.15, -141988.25, -143085.45, -0.00, -0.04, 1.01
53, -6101.78, -6091.88, -6183.54, -6123.04, -119861.36, -111879.73, -141985.88, -143083.06, -0.00, -0.04, 1.01
54, -6101.40, -6091.45, -6183.21, -6122.72, -119860.96, -111879.33, -141985.47, -143082.67, -0.00, -0.04, 1.01
55, -6102.38, -6092.46, -6184.21, -6123.77, -119861.80, -111880.24, -141986.34, -143083.53, -0.00, -0.04, 1.01
56, -6104.06, -6094.07, -6185.78, -6125.38, -119863.48, -111881.90, -141987.94, -143085.05, -0.01, -0.05, 1.01
57, -6105.31, -6095.32, -6187.19, -6126.70, -119864.82, -111883.20, -141989.25, -143086.36, -0.01, -0.05, 1.01
58, -6107.41, -6097.44, -6189.24, -6128.83, -119866.81, -111885.25, -141991.28, -143088.44, -0.01, -0.05, 1.01
59, -6105.29, -6095.37, -6187.10, -6126.72, -119864.55, -111883.09, -141989.14, -143086.28, -0.01, -0.05, 1.01
60, -6103.61, -6093.64, -6185.42, -6125.07, -119862.73, -111881.36, -141987.34, -143084.42, -0.01, -0.05, 1.01
61, -6105.54, -6095.57, -6187.43, -6127.08, -119864.66, -111883.30, -141989.34, -143086.41, -0.01, -0.05, 1.01
62, -6105.51, -6095.57, -6187.39, -6127.06, -119864.65, -111883.24, -141989.34, -143086.39, -0.01, -0.05, 1.01
63, -6104.44, -6094.52, -6186.29, -6125.96, -119863.44, -111882.05, -141988.06, -143085.17, -0.01, -0.05, 1.01
64, -6103.50, -6093.69, -6185.42, -6125.16, -119862.50, -111881.09, -141987.08, -143084.17, -0.01, -0.05, 1.01
65, -6102.76, -6092.93, -6184.64, -6124.56, -119861.80, -111880.40, -141986.39, -143083.44, -0.01, -0.05, 1.01
66, -6103.68, -6093.91, -6185.55, -6125.43, -119862.81, -111881.32, -141987.38, -143084.36, -0.01, -0.05, 1.01
67, -6104.35, -6094.63, -6186.25, -6126.01, -119863.35, -111881.85, -141987.94, -143085.05, -0.01, -0.05, 1.01
68, -6103.79, -6094.11, -6185.69, -6125.45, -119862.68, -111881.23, -141987.27, -143084.38, -0.01, -0.05, 1.01
69, -6102.90, -6093.17, -6184.93, -6124.58, -119861.80, -111880.42, -141986.39, -143083.50, -0.01, -0.05, 1.01
70, -6103.81, -6094.09, -6185.85, -6125.52, -119862.70, -111881.36, -141987.33, -143084.48, -0.01, -0.05, 1.01
71, -6101.85, -6092.19, -6183.97, -6123.64, -119860.84, -111879.41, -141985.39, -143082.61, -0.01, -0.05, 1.02
72, -6098.83, -6089.26, -6180.99, -6120.73, -119857.74, -111876.36, -141982.30, -143079.45, -0.01, -0.05, 1.02
73, -6098.81, -6089.20, -6180.91, -6120.62, -119857.60, -111876.22, -141982.20, -143079.33, -0.01, -0.05, 1.02
74, -6097.42, -6087.74, -6179.50, -6119.15, -119856.17, -111874.79, -141980.78, -143077.95, -0.01, -0.05, 1.02
75, -6098.41, -6088.70, -6180.50, -6120.22, -119857.11, -111875.80, -141981.73, -143079.02, -0.01, -0.05, 1.02
76, -6099.61, -6089.80, -6181.62, -6121.36, -119858.23, -111876.84, -141982.80, -143079.92, -0.01, -0.05, 1.02
77, -6099.50, -6089.82, -6181.62, -6121.25, -119858.12, -111876.73, -141982.72, -143079.84, -0.01, -0.05, 1.02
78, -6099.14, -6089.38, -6181.20, -6120.91, -119857.70, -111876.36, -141982.41, -143079.44, -0.01, -0.05, 1.02
79, -6100.17, -6090.38, -6182.29, -6121.96, -119858.66, -111877.36, -141983.34, -143080.47, -0.01, -0.05, 1.02
80, -6097.27, -6087.48, -6179.34, -6119.10, -119855.68, -111874.41, -141980.33, -143077.48, -0.01, -0.05, 1.02
81, -6098.92, -6089.11, -6180.91, -6120.67, -119857.18, -111876.04, -141981.88, -143078.98, -0.00, -0.05, 1.02
82, -6102.72, -6093.02, -6184.88, -6124.53, -119861.05, -111879.84, -141985.78, -143082.94, -0.00, -0.05, 1.02
83, -6101.00, -6091.19, -6183.19, -6122.79, -119859.28, -111878.08, -141983.97, -143081.14, -0.00, -0.05, 1.02
84, -6096.57, -6086.80, -6178.80, -6118.48, -119854.84, -111873.61, -141979.48, -143076.58, -0.00, -0.05, 1.02
85, -6098.29, -6088.55, -6180.44, -6120.15, -119856.45, -111875.23, -141981.09, -143078.23, -0.00, -0.05, 1.02
86, -6099.12, -6089.31, -6181.24, -6121.00, -119857.34, -111876.11, -141982.02, -143079.08, -0.01, -0.05, 1.01
87, -6098.58, -6088.77, -6180.64, -6120.47, -119856.80, -111875.59, -141981.45, -143078.52, -0.01, -0.05, 1.01
88, -6098.81, -6089.11, -6180.97, -6120.82, -119857.00, -111875.87, -141981.56, -143078.73, -0.01, -0.05, 1.01
89, -6097.98, -6088.35, -6180.15, -6119.93, -119856.06, -111874.95, -141980.64, -143077.84, -0.01, -0.05, 1.01
90, -6098.81, -6089.20, -6181.04, -6120.80, -119856.91, -111875.69, -141981.56, -143078.67, -0.01, -0.05, 1.01
91, -6099.97, -6090.27, -6182.18, -6121.99, -119857.98, -111876.89, -141982.72, -143079.81, -0.01, -0.05, 1.01
92, -6099.95, -6090.16, -6182.13, -6121.87, -119857.85, -111876.87, -141982.61, -143079.69, -0.01, -0.05, 1.01
93, -6101.51, -6091.79, -6183.72, -6123.35, -119859.33, -111878.34, -141983.94, -143081.14, -0.01, -0.05, 1.01
94, -6101.82, -6092.10, -6184.01, -6123.75, -119859.59, -111878.61, -141984.27, -143081.42, -0.01, -0.05, 1.01
95, -6099.48, -6089.69, -6181.58, -6121.38, -119857.20, -111876.20, -141981.89, -143079.05, -0.01, -0.05, 1.01
96, -6101.15, -6091.41, -6183.30, -6123.01, -119858.92, -111877.85, -141983.63, -143080.69, -0.01, -0.05, 1.01
97, -6103.26, -6093.67, -6185.44, -6125.20, -119860.98, -111879.98, -141985.66, -143082.81, -0.01, -0.05, 1.01
98, -6100.73, -6091.19, -6183.03, -6122.79, -119858.37, -111877.49, -141983.17, -143080.27, -0.01, -0.05, 1.01
99, -6100.82, -6091.16, -6183.03, -6122.72, -119858.45, -111877.56, -141983.28, -143080.28, -0.01, -0.05, 1.01
100, -6100.91, -6091.23, -6183.10, -6122.79, -119858.55, -111877.65, -141983.33, -143080.31, -0.01, -0.05, 1.01
101, -6099.66, -6089.96, -6181.82, -6121.52, -119857.13, -111876.24, -141981.88, -143079.02, -0.01, -0.05, 1.01
102, -6100.66, -6090.98, -6182.76, -6122.46, -119858.01, -111877.16, -141982.80, -143079.86, -0.01, -0.06, 1.01
103, -6103.17, -6093.47, -6185.29, -6124.96, -119860.53, -111879.69, -141985.25, -143082.47, -0.01, -0.06, 1.01
104, -6103.64, -6093.93, -6185.78, -6125.54, -119860.98, -111880.05, -141985.72, -143082.88, -0.01, -0.06, 1.01
105, -6103.46, -6093.73, -6185.55, -6125.41, -119860.69, -111879.77, -141985.50, -143082.61, -0.01, -0.06, 1.01
106, -6103.46, -6093.78, -6185.60, -6125.43, -119860.64, -111879.84, -141985.47, -143082.66, -0.01, -0.06, 1.01
107, -6102.47, -6092.79, -6184.55, -6124.47, -119859.70, -111878.93, -141984.48, -143081.69, -0.01, -0.05, 1.00
108, -6103.93, -6094.23, -6186.00, -6125.92, -119861.09, -111880.18, -141985.94, -143082.98, -0.01, -0.05, 1.00
109, -6103.28, -6093.47, -6185.42, -6125.18, -119860.38, -111879.44, -141985.20, -143082.23, -0.01, -0.05, 1.00
110, -6102.72, -6092.95, -6184.86, -6124.69, -119859.77, -111878.93, -141984.56, -143081.73, -0.01, -0.05, 1.00
111, -6103.05, -6093.33, -6185.29, -6125.03, -119860.09, -111879.22, -141984.80, -143082.08, -0.01, -0.05, 1.00
112, -6103.75, -6094.07, -6186.00, -6125.74, -119860.76, -111879.89, -141985.52, -143082.83, -0.01, -0.05, 1.01
113, -6103.17, -6093.51, -6185.44, -6125.20, -119860.24, -111879.38, -141985.03, -143082.27, -0.01, -0.05, 1.01
114, -6101.49, -6091.79, -6183.74, -6123.46, -119858.30, -111877.49, -141983.19, -143080.38, -0.01, -0.05, 1.01
115, -6100.91, -6091.27, -6183.12, -6122.95, -119857.72, -111876.89, -141982.56, -143079.69, -0.01, -0.05, 1.01
116, -6101.31, -6091.65, -6183.54, -6123.30, -119858.07, -111877.32, -141982.98, -143080.16, -0.01, -0.05, 1.01
117, -6100.91, -6091.21, -6183.19, -6122.81, -119857.67, -111876.87, -141982.59, -143079.69, -0.01, -0.05, 1.01
118, -6101.36, -6091.68, -6183.59, -6123.19, -119857.90, -111877.14, -141982.80, -143079.95, -0.01, -0.05, 1.01
119, -6101.62, -6092.01, -6183.86, -6123.55, -119858.25, -111877.56, -141983.11, -143080.34, -0.01, -0.05, 1.01
120, -6103.41, -6093.85, -6185.71, -6125.43, -119860.20, -111879.40, -141984.98, -143082.20, -0.01, -0.05, 1.01
121, -6105.18, -6095.52, -6187.39, -6127.15, -119861.88, -111881.01, -141986.56, -143083.84, -0.01, -0.05, 1.01
122, -6106.30, -6096.75, -6188.53, -6128.27, -119862.90, -111882.08, -141987.58, -143084.84, -0.01, -0.05, 1.00
123, -6105.42, -6096.04, -6187.75, -6127.33, -119862.03, -111881.25, -141986.80, -143084.00, -0.01, -0.05, 1.00
124, -6103.05, -6093.58, -6185.44, -6124.91, -119859.68, -111878.88, -141984.36, -143081.58, -0.01, -0.05, 1.00
125, -6101.40, -6091.95, -6183.77, -6123.33, -119857.88, -111877.25, -141982.72, -143079.95, -0.01, -0.05, 1.00
126, -6100.44, -6090.94, -6182.85, -6122.41, -119856.84, -111876.24, -141981.73, -143078.98, -0.01, -0.05, 1.00
127, -6099.39, -6089.87, -6181.78, -6121.38, -119855.75, -111875.08, -141980.58, -143077.89, -0.01, -0.05, 1.01
128, -6101.33, -6091.79, -6183.65, -6123.33, -119857.72, -111876.98, -141982.64, -143079.80, -0.01, -0.05, 1.01
129, -6103.05, -6093.67, -6185.49, -6125.20, -119859.51, -111878.86, -141984.47, -143081.67, -0.01, -0.05, 1.01
130, -6104.24, -6094.85, -6186.60, -6126.34, -119860.60, -111879.84, -141985.42, -143082.61, -0.01, -0.05, 1.01
131, -6103.05, -6093.60, -6185.44, -6125.03, -119859.30, -111878.61, -141984.25, -143081.33, -0.01, -0.05, 1.01
132, -6100.89, -6091.27, -6183.16, -6122.84, -119857.05, -111876.45, -141982.08, -143079.25, -0.01, -0.05, 1.01
133, -6099.92, -6090.38, -6182.25, -6121.94, -119856.02, -111875.48, -141981.05, -143078.23, -0.01, -0.05, 1.01
134, -6101.33, -6091.72, -6183.65, -6123.33, -119857.45, -111876.78, -141982.28, -143079.56, -0.01, -0.05, 1.01
135, -6104.37, -6094.83, -6186.67, -6126.37, -119860.48, -111879.80, -141985.30, -143082.58, -0.01, -0.05, 1.01
136, -6103.61, -6094.05, -6185.93, -6125.63, -119859.66, -111879.10, -141984.58, -143081.83, -0.01, -0.05, 1.01
137, -6103.26, -6093.62, -6185.49, -6125.29, -119859.23, -111878.70, -141984.22, -143081.45, -0.01, -0.05, 1.01
138, -6101.00, -6091.45, -6183.30, -6123.08, -119857.00, -111876.38, -141981.89, -143079.14, -0.01, -0.05, 1.01
139, -6101.51, -6091.99, -6183.86, -6123.64, -119857.47, -111876.84, -141982.34, -143079.61, -0.01, -0.05, 1.01
140, -6104.24, -6094.67, -6186.54, -6126.39, -119860.22, -111879.55, -141985.09, -143082.27, -0.01, -0.05, 1.01
141, -6106.25, -6096.71, -6188.55, -6128.33, -119862.32, -111881.59, -141987.27, -143084.28, -0.01, -0.05, 1.01
142, -6104.60, -6095.12, -6186.94, -6126.75, -119860.64, -111879.91, -141985.52, -143082.58, -0.01, -0.04, 1.01
143, -6102.94, -6093.44, -6185.29, -6125.07, -119858.77, -111878.19, -141983.69, -143080.81, -0.01, -0.04, 1.01
144, -6104.04, -6094.56, -6186.34, -6126.17, -119859.77, -111879.15, -141984.73, -143081.98, -0.01, -0.04, 1.01
145, -6105.69, -6096.19, -6187.99, -6127.80, -119861.36, -111880.76, -141986.45, -143083.59, -0.01, -0.04, 1.01
146, -6105.65, -6096.19, -6187.95, -6127.80, -119861.34, -111880.76, -141986.39, -143083.39, -0.01, -0.04, 1.01
147, -6104.22, -6094.81, -6186.49, -6126.28, -119859.77, -111879.33, -141984.83, -143081.94, -0.01, -0.04, 1.02
148, -6102.47, -6093.06, -6184.71, -6124.47, -119857.94, -111877.48, -141983.03, -143080.16, -0.01, -0.04, 1.02
149, -6104.73, -6095.37, -6186.94, -6126.81, -119860.31, -111879.77, -141985.36, -143082.42, -0.01, -0.04, 1.02
150, -6104.75, -6095.50, -6186.98, -6126.84, -119860.33, -111879.80, -141985.25, -143082.39, -0.01, -0.04, 1.02
151, -6103.84, -6094.69, -6186.16, -6126.01, -119859.44, -111878.88, -141984.33, -143081.48, -0.01, -0.04, 1.02
152, -6102.94, -6093.78, -6185.38, -6125.14, -119858.55, -111878.03, -141983.44, -143080.69, -0.01, -0.05, 1.01
153, -6103.30, -6094.07, -6185.78, -6125.54, -119858.86, -111878.41, -141983.86, -143081.09, -0.01, -0.05, 1.01
154, -6102.05, -6092.79, -6184.48, -6124.29, -119857.56, -111877.05, -141982.50, -143079.72, -0.01, -0.05, 1.01
155, -6101.33, -6092.12, -6183.81, -6123.60, -119856.71, -111876.24, -141981.70, -143078.92, -0.01, -0.05, 1.01
156, -6103.26, -6094.11, -6185.67, -6125.41, -119858.52, -111878.05, -141983.55, -143080.70, -0.01, -0.05, 1.01
157, -6105.96, -6096.86, -6188.42, -6128.20, -119861.31, -111880.91, -141986.41, -143083.61, -0.01, -0.04, 1.02
158, -6105.38, -6096.15, -6187.75, -6127.55, -119860.64, -111880.31, -141985.73, -143082.94, -0.01, -0.04, 1.02
159, -6104.78, -6095.54, -6187.05, -6126.84, -119860.02, -111879.57, -141984.88, -143082.23, -0.01, -0.04, 1.02
160, -6106.30, -6097.11, -6188.55, -6128.29, -119861.52, -111881.05, -141986.34, -143083.66, -0.01, -0.04, 1.02
161, -6106.54, -6097.29, -6188.73, -6128.49, -119861.63, -111881.27, -141986.59, -143083.77, -0.01, -0.04, 1.02
162, -6104.10, -6095.01, -6186.38, -6126.17, -119859.23, -111878.84, -141984.31, -143081.36, -0.01, -0.04, 1.02
163, -6102.20, -6093.02, -6184.48, -6124.20, -119857.11, -111876.87, -141982.28, -143079.39, -0.01, -0.04, 1.02
164, -6104.64, -6095.43, -6186.87, -6126.57, -119859.46, -111879.28, -141984.56, -143081.73, -0.01, -0.04, 1.02
165, -6103.30, -6094.07, -6185.51, -6125.18, -119858.19, -111877.95, -141983.11, -143080.42, -0.01, -0.04, 1.02
166, -6103.46, -6094.23, -6185.60, -6125.23, -119858.41, -111878.13, -141983.33, -143080.59, -0.01, -0.04, 1.02
167, -6102.65, -6093.38, -6184.82, -6124.51, -119857.58, -111877.23, -141982.56, -143079.81, -0.01, -0.04, 1.02
168, -6102.56, -6093.22, -6184.64, -6124.44, -119857.29, -111877.00, -141982.34, -143079.66, -0.01, -0.04, 1.02
169, -6102.88, -6093.58, -6184.97, -6124.78, -119857.52, -111877.38, -141982.59, -143079.91, -0.01, -0.04, 1.02
170, -6100.48, -6091.23, -6182.72, -6122.41, -119855.17, -111874.95, -141980.31, -143077.48, -0.01, -0.04, 1.02
171, -6101.56, -6092.24, -6183.79, -6123.39, -119856.35, -111876.04, -141981.38, -143078.61, -0.01, -0.04, 1.02
172, -6103.86, -6094.54, -6186.11, -6125.70, -119858.56, -111878.34, -141983.59, -143080.91, -0.01, -0.05, 1.02
173, -6102.50, -6093.15, -6184.71, -6124.33, -119857.05, -111876.89, -141982.19, -143079.34, -0.01, -0.05, 1.02
174, -6104.19, -6094.90, -6186.49, -6126.08, -119858.81, -111878.66, -141984.00, -143081.14, -0.01, -0.05, 1.02
175, -6104.95, -6095.63, -6187.28, -6126.77, -119859.57, -111879.40, -141984.67, -143081.95, -0.01, -0.05, 1.02
176, -6101.76, -6092.53, -6184.10, -6123.73, -119856.38, -111876.22, -141981.45, -143078.70, -0.01, -0.05, 1.02
177, -6101.22, -6091.99, -6183.56, -6123.17, -119855.75, -111875.59, -141980.75, -143078.14, -0.01, -0.05, 1.02
178, -6103.75, -6094.36, -6186.05, -6125.52, -119858.09, -111877.95, -141983.22, -143080.59, -0.01, -0.05, 1.02
179, -6103.84, -6094.40, -6186.07, -6125.52, -119858.12, -111877.95, -141983.28, -143080.58, -0.01, -0.05, 1.02
180, -6103.08, -6093.80, -6185.33, -6124.80, -119857.41, -111877.23, -141982.61, -143079.84, -0.01, -0.05, 1.02
181, -6102.07, -6092.79, -6184.41, -6123.86, -119856.35, -111876.22, -141981.58, -143078.81, -0.01, -0.05, 1.02
182, -6102.52, -6093.11, -6184.86, -6124.31, -119856.69, -111876.65, -141981.98, -143079.19, -0.01, -0.05, 1.02
183, -6102.38, -6093.00, -6184.64, -6124.24, -119856.51, -111876.52, -141981.89, -143078.94, -0.01, -0.05, 1.02
184, -6103.37, -6094.07, -6185.67, -6125.25, -119857.52, -111877.54, -141982.81, -143080.02, -0.01, -0.05, 1.02
185, -6103.59, -6094.23, -6185.89, -6125.43, -119857.58, -111877.70, -141982.80, -143080.17, -0.01, -0.05, 1.02
186, -6103.37, -6093.89, -6185.76, -6125.20, -119857.41, -111877.45, -141982.61, -143079.92, -0.01, -0.05, 1.02
187, -6104.19, -6094.85, -6186.60, -6126.08, -119858.21, -111878.32, -141983.50, -143080.89, -0.01, -0.05, 1.01
188, -6103.97, -6094.56, -6186.23, -6125.63, -119857.78, -111877.96, -141983.08, -143080.47, -0.01, -0.05, 1.01
189, -6103.79, -6094.34, -6186.00, -6125.43, -119857.47, -111877.67, -141982.72, -143080.08, -0.01, -0.05, 1.01
190, -6100.37, -6091.05, -6182.76, -6122.12, -119854.20, -111874.39, -141979.44, -143076.73, -0.01, -0.05, 1.01
191, -6101.27, -6091.97, -6183.70, -6123.01, -119855.19, -111875.26, -141980.52, -143077.73, -0.01, -0.05, 1.01
192, -6100.62, -6091.41, -6183.05, -6122.50, -119854.50, -111874.59, -141979.86, -143077.17, -0.01, -0.06, 1.01
193, -6101.76, -6092.41, -6184.21, -6123.57, -119855.55, -111875.66, -141980.78, -143078.25, -0.01, -0.06, 1.01
194, -6102.81, -6093.51, -6185.29, -6124.65, -119856.62, -111876.71, -141981.81, -143079.28, -0.01, -0.06, 1.01
195, -6101.71, -6092.39, -6184.24, -6123.55, -119855.52, -111875.66, -141980.83, -143078.25, -0.01, -0.06, 1.01
196, -6102.16, -6092.82, -6184.68, -6124.00, -119855.98, -111876.09, -141981.27, -143078.67, -0.01, -0.06, 1.01
197, -6101.85, -6092.46, -6184.33, -6123.69, -119855.55, -111875.66, -141980.83, -143078.25, -0.01, -0.06, 1.01
198, -6100.48, -6091.10, -6182.98, -6122.30, -119854.12, -111874.19, -141979.34, -143076.89, -0.01, -0.06, 1.01
199, -6101.82, -6092.41, -6184.37, -6123.75, -119855.50, -111875.59, -141980.83, -143078.27, -0.01, -0.06, 1.01
200, -6103.10, -6093.67, -6185.73, -6125.14, -119856.80, -111876.98, -141982.23, -143079.59, -0.01, -0.06, 1.01
201, -6100.69, -6091.25, -6183.25, -6122.68, -119854.25, -111874.45, -141979.69, -143076.95, -0.01, -0.06, 1.01
202, -6099.43, -6090.05, -6181.96, -6121.38, -119852.91, -111873.14, -141978.33, -143075.67, -0.01, -0.05, 1.01
203, -6098.54, -6089.04, -6181.11, -6120.51, -119852.09, -111872.29, -141977.42, -143074.81, -0.01, -0.05, 1.01
204, -6097.40, -6087.90, -6180.01, -6119.37, -119850.88, -111871.17, -141976.36, -143073.75, -0.01, -0.05, 1.01
205, -6099.41, -6089.93, -6181.93, -6121.23, -119852.76, -111873.05, -141978.16, -143075.61, -0.01, -0.05, 1.01
206, -6098.99, -6089.44, -6181.51, -6120.71, -119852.24, -111872.53, -141977.61, -143075.13, -0.01, -0.05, 1.01
207, -6099.77, -6090.20, -6182.40, -6121.61, -119853.16, -111873.45, -141978.48, -143075.92, -0.01, -0.05, 1.01
208, -6099.70, -6090.16, -6182.31, -6121.54, -119853.02, -111873.30, -141978.41, -143075.83, -0.01, -0.06, 1.01
209, -6099.70, -6090.25, -6182.45, -6121.54, -119853.00, -111873.36, -141978.41, -143075.88, -0.01, -0.06, 1.01
210, -6100.06, -6090.74, -6182.83, -6121.96, -119853.38, -111873.80, -141978.77, -143076.27, -0.01, -0.06, 1.01
211, -6101.94, -6092.57, -6184.62, -6123.89, -119855.23, -111875.62, -141980.58, -143078.14, -0.01, -0.06, 1.01
212, -6103.01, -6093.55, -6185.64, -6124.91, -119856.22, -111876.58, -141981.61, -143079.09, -0.01, -0.06, 1.01
213, -6103.34, -6093.96, -6185.98, -6125.29, -119856.46, -111876.96, -141981.98, -143079.45, -0.00, -0.05, 1.01
214, -6099.21, -6089.89, -6181.87, -6121.16, -119852.27, -111872.84, -141977.77, -143075.23, -0.00, -0.05, 1.01
215, -6098.41, -6089.00, -6181.02, -6120.27, -119851.41, -111871.91, -141976.84, -143074.31, -0.00, -0.05, 1.01
216, -6098.79, -6089.44, -6181.49, -6120.73, -119851.88, -111872.31, -141977.36, -143074.72, -0.00, -0.05, 1.01
217, -6099.81, -6090.54, -6182.51, -6121.76, -119852.77, -111873.36, -141978.36, -143075.75, -0.00, -0.05, 1.01
218, -6098.81, -6089.55, -6181.46, -6120.67, -119851.63, -111872.22, -141977.25, -143074.72, -0.01, -0.05, 1.01
219, -6099.77, -6090.49, -6182.54, -6121.67, -119852.69, -111873.14, -141978.23, -143075.66, -0.01, -0.05, 1.01
220, -6102.63, -6093.24, -6185.31, -6124.42, -119855.46, -111875.98, -141981.05, -143078.34, -0.01, -0.05, 1.01
221, -6102.41, -6092.93, -6185.02, -6124.09, -119855.10, -111875.59, -141980.72, -143078.08, -0.01, -0.05, 1.01
222, -6103.61, -6094.18, -6186.20, -6125.32, -119856.24, -111876.84, -141981.88, -143079.23, -0.01, -0.05, 1.01
223, -6105.22, -6095.72, -6187.79, -6126.93, -119857.85, -111878.34, -141983.34, -143080.81, -0.01, -0.05, 1.00
224, -6105.09, -6095.54, -6187.75, -6126.88, -119857.72, -111878.28, -141983.31, -143080.75, -0.01, -0.05, 1.00
225, -6103.84, -6094.36, -6186.49, -6125.67, -119856.53, -111877.05, -141982.23, -143079.44, -0.01, -0.05, 1.00
226, -6102.34, -6093.00, -6184.95, -6124.24, -119854.99, -111875.53, -141980.59, -143077.92, -0.01, -0.05, 1.00
227, -6102.67, -6093.35, -6185.29, -6124.60, -119855.26, -111875.66, -141980.73, -143078.20, -0.01, -0.05, 1.00
228, -6104.17, -6094.83, -6186.87, -6126.03, -119856.78, -111877.16, -141982.34, -143079.77, -0.01, -0.05, 1.01
229, -6102.12, -6092.79, -6184.77, -6123.98, -119854.74, -111875.22, -141980.33, -143077.67, -0.01, -0.05, 1.01
230, -6104.02, -6094.61, -6186.56, -6125.81, -119856.55, -111877.09, -141981.98, -143079.41, -0.01, -0.05, 1.01
231, -6106.70, -6097.29, -6189.24, -6128.42, -119859.19, -111879.82, -141984.72, -143082.11, -0.01, -0.05, 1.01
232, -6105.69, -6096.28, -6188.28, -6127.44, -119858.14, -111878.79, -141983.80, -143081.17, -0.01, -0.05, 1.01
233, -6103.52, -6094.18, -6186.16, -6125.38, -119855.99, -111876.60, -141981.70, -143078.98, -0.00, -0.05, 1.01
234, -6103.64, -6094.25, -6186.31, -6125.47, -119856.02, -111876.65, -141981.67, -143078.94, -0.00, -0.05, 1.01
235, -6103.50, -6094.09, -6186.16, -6125.20, -119855.84, -111876.38, -141981.34, -143078.78, -0.00, -0.05, 1.01
236, -6100.13, -6090.78, -6182.78, -6121.76, -119852.48, -111873.00, -141978.03, -143075.34, -0.00, -0.05, 1.01
237, -6099.43, -6090.16, -6182.16, -6121.23, -119851.75, -111872.29, -141977.41, -143074.67, -0.00, -0.05, 1.01
238, -6100.06, -6090.78, -6182.78, -6121.90, -119852.30, -111872.87, -141977.97, -143075.25, -0.01, -0.05, 1.01
239, -6100.06, -6090.83, -6182.76, -6121.90, -119852.22, -111872.91, -141977.89, -143075.25, -0.01, -0.05, 1.01
240, -6100.37, -6091.19, -6183.16, -6122.30, -119852.77, -111873.31, -141978.33, -143075.66, -0.01, -0.05, 1.01
241, -6099.10, -6089.82, -6181.84, -6120.89, -119851.30, -111871.95, -141977.03, -143074.34, -0.01, -0.05, 1.01
242, -6098.16, -6089.02, -6180.97, -6120.04, -119850.34, -111871.04, -141976.08, -143073.41, -0.01, -0.05, 1.01
243, -6097.76, -6088.55, -6180.53, -6119.57, -119849.87, -111870.50, -141975.61, -143072.94, -0.01, -0.05, 1.01
244, -6097.38, -6088.10, -6180.19, -6119.21, -119849.42, -111870.16, -141975.19, -143072.53, -0.01, -0.05, 1.01
245, -6097.73, -6088.55, -6180.61, -6119.66, -119849.80, -111870.56, -141975.69, -143073.00, -0.01, -0.05, 1.01
246, -6096.82, -6087.68, -6179.68, -6118.61, -119848.87, -111869.56, -141974.72, -143071.98, -0.01, -0.05, 1.01
247, -6099.75, -6090.54, -6182.51, -6121.52, -119851.68, -111872.47, -141977.53, -143074.86, -0.01, -0.05, 1.01
248, -6101.06, -6091.86, -6183.92, -6123.01, -119853.02, -111873.83, -141978.98, -143076.22, -0.01, -0.05, 1.01
249, -6101.91, -6092.71, -6184.84, -6123.89, -119853.98, -111874.75, -141979.89, -143077.02, -0.01, -0.05, 1.01
250, -6102.52, -6093.24, -6185.26, -6124.24, -119854.43, -111875.26, -141980.28, -143077.41, -0.01, -0.05, 1.01
251, -6100.82, -6091.54, -6183.52, -6122.68, -119852.66, -111873.52, -141978.55, -143075.80, -0.01, -0.05, 1.01
252, -6100.53, -6091.21, -6183.30, -6122.32, -119852.33, -111873.14, -141978.13, -143075.50, -0.01, -0.05, 1.01
253, -6101.60, -6092.33, -6184.37, -6123.33, -119853.34, -111874.12, -141979.27, -143076.47, -0.01, -0.05, 1.01
254, -6099.77, -6090.40, -6182.49, -6121.47, -119851.52, -111872.27, -141977.41, -143074.56, -0.01, -0.05, 1.01
255, -6100.60, -6091.21, -6183.41, -6122.30, -119852.20, -111873.07, -141978.09, -143075.36, -0.01, -0.05, 1.01
0, -6101.94, -6092.66, -6184.77, -6123.80, -119853.49, -111874.48, -141979.38, -143076.66, -0.01, -0.05, 1.01
1, -6102.88, -6093.64, -6185.67, -6124.78, -119854.54, -111875.51, -141980.42, -143077.67, -0.01, -0.05, 1.01
2, -6103.19, -6093.89, -6185.96, -6124.89, -119854.79, -111875.69, -141980.73, -143077.98, -0.01, -0.05, 1.01
3, -6101.82, -6092.57, -6184.66, -6123.62, -119853.38, -111874.23, -141979.28, -143076.58, -0.01, -0.05, 1.01
4, -6101.87, -6092.68, -6184.64, -6123.62, -119853.38, -111874.26, -141979.14, -143076.55, -0.01, -0.05, 1.01
5, -6102.29, -6093.02, -6185.06, -6124.02, -119853.73, -111874.61, -141979.48, -143076.89, -0.01, -0.05, 1.01
6, -6101.82, -6092.48, -6184.64, -6123.60, -119853.23, -111874.16, -141979.19, -143076.47, -0.01, -0.05, 1.01
7, -6099.95, -6090.67, -6182.81, -6121.67, -119851.32, -111872.24, -141977.25, -143074.56, -0.01, -0.05, 1.01
8, -6099.99, -6090.67, -6182.74, -6121.63, -119851.21, -111872.16, -141977.11, -143074.50, -0.01, -0.05, 1.01
9, -6096.57, -6087.30, -6179.30, -6118.32, -119847.75, -111868.84, -141973.73, -143071.14, -0.01, -0.05, 1.01
10, -6096.95, -6087.54, -6179.68, -6118.79, -119848.17, -111869.23, -141974.28, -143071.50, -0.01, -0.05, 1.01
11, -6097.47, -6088.12, -6180.21, -6119.24, -119848.62, -111869.60, -141974.70, -143071.97, -0.01, -0.05, 1.01
12, -6097.98, -6088.64, -6180.75, -6119.77, -119848.98, -111870.14, -141975.06, -143072.39, -0.01, -0.04, 1.02
13, -6099.14, -6089.71, -6181.82, -6120.87, -119850.09, -111871.33, -141976.13, -143073.53, -0.01, -0.04, 1.02
14, -6099.32, -6090.02, -6182.11, -6121.20, -119850.56, -111871.64, -141976.52, -143073.88, -0.01, -0.04, 1.02
15, -6101.11, -6091.77, -6183.97, -6123.06, -119852.30, -111873.36, -141978.39, -143075.55, -0.01, -0.04, 1.02
16, -6101.40, -6092.06, -6184.30, -6123.30, -119852.44, -111873.63, -141978.50, -143075.88, -0.01, -0.04, 1.02
17, -6102.00, -6092.57, -6184.77, -6123.86, -119852.98, -111874.14, -141979.14, -143076.55, -0.01, -0.05, 1.01
18, -6099.54, -6090.20, -6182.36, -6121.47, -119850.66, -111871.86, -141976.84, -143074.11, -0.01, -0.05, 1.01
19, -6099.70, -6090.29, -6182.49, -6121.56, -119850.74, -111871.86, -141976.88, -143074.20, -0.01, -0.05, 1.01
20, -6097.80, -6088.37, -6180.46, -6119.62, -119848.73, -111869.80, -141974.78, -143072.19, -0.01, -0.05, 1.01
21, -6096.51, -6087.03, -6179.05, -6118.25, -119847.37, -111868.45, -141973.45, -143070.78, -0.01, -0.05, 1.01
22, -6097.47, -6087.92, -6180.06, -6119.19, -119848.30, -111869.47, -141974.47, -143071.77, -0.01, -0.06, 1.01
23, -6095.57, -6086.18, -6178.22, -6117.29, -119846.38, -111867.59, -141972.59, -143069.88, -0.01, -0.06, 1.01
24, -6096.13, -6086.71, -6178.71, -6117.92, -119846.88, -111868.06, -141973.09, -143070.31, -0.01, -0.06, 1.01
25, -6095.57, -6086.16, -6178.18, -6117.43, -119846.32, -111867.51, -141972.48, -143069.75, -0.01, -0.06, 1.01
26, -6095.30, -6085.89, -6177.91, -6117.14, -119846.07, -111867.23, -141972.38, -143069.63, -0.01, -0.06, 1.01
27, -6098.38, -6088.93, -6181.06, -6120.22, -119849.16, -111870.30, -141975.45, -143072.73, -0.01, -0.05, 1.01
28, -6099.37, -6089.78, -6182.02, -6121.07, -119849.98, -111871.20, -141976.20, -143073.56, -0.01, -0.05, 1.01
29, -6099.79, -6090.25, -6182.40, -6121.52, -119850.36, -111871.62, -141976.53, -143073.95, -0.01, -0.05, 1.01
30, -6099.17, -6089.64, -6181.84, -6120.94, -119849.78, -111871.04, -141976.00, -143073.41, -0.01, -0.05, 1.01
31, -6099.23, -6089.69, -6181.96, -6121.02, -119849.78, -111871.17, -141976.08, -143073.33, -0.01, -0.05, 1.01
32, -6099.90, -6090.29, -6182.60, -6121.74, -119850.43, -111871.82, -141976.69, -143074.00, -0.01, -0.05, 1.01
33, -6098.11, -6088.55, -6180.88, -6120.04, -119848.69, -111870.05, -141974.86, -143072.19, -0.01, -0.05, 1.01
34, -6100.48, -6090.90, -6183.19, -6122.41, -119850.97, -111872.38, -141977.19, -143074.56, -0.01, -0.05, 1.01
35, -6100.95, -6091.43, -6183.70, -6122.90, -119851.44, -111872.82, -141977.69, -143075.02, -0.01, -0.05, 1.01
36, -6100.17, -6090.72, -6182.98, -6122.01, -119850.63, -111871.98, -141976.84, -143074.27, -0.01, -0.05, 1.01
37, -6099.43, -6090.00, -6182.20, -6121.23, -119849.83, -111871.20, -141975.97, -143073.38, -0.01, -0.04, 1.01
38, -6099.43, -6089.93, -6182.18, -6121.23, -119849.71, -111871.13, -141975.97, -143073.44, -0.01, -0.04, 1.01
39, -6100.64, -6091.27, -6183.43, -6122.57, -119851.08, -111872.40, -141977.36, -143074.73, -0.01, -0.04, 1.01
40, -6101.49, -6092.12, -6184.37, -6123.51, -119851.97, -111873.31, -141978.30, -143075.66, -0.01, -0.04, 1.01
41, -6098.94, -6089.46, -6181.80, -6120.85, -119849.29, -111870.61, -141975.53, -143072.89, -0.01, -0.04, 1.01
42, -6098.09, -6088.44, -6180.77, -6119.84, -119848.28, -111869.70, -141974.45, -143071.97, -0.01, -0.04, 1.02
43, -6100.06, -6090.54, -6182.87, -6121.85, -119850.43, -111871.75, -141976.63, -143074.06, -0.01, -0.04, 1.02
44, -6100.28, -6090.81, -6183.14, -6122.08, -119850.66, -111872.02, -141976.80, -143074.25, -0.01, -0.04, 1.02
45, -6099.34, -6089.89, -6182.20, -6121.11, -119849.65, -111871.02, -141975.73, -143073.22, -0.01, -0.04, 1.02
46, -6099.79, -6090.36, -6182.58, -6121.45, -119849.87, -111871.37, -141976.13, -143073.58, -0.01, -0.04, 1.02
47, -6099.52, -6090.00, -6182.36, -6121.18, -119849.60, -111871.08, -141975.95, -143073.36, -0.01, -0.05, 1.01
48, -6100.62, -6091.21, -6183.48, -6122.28, -119850.77, -111872.17, -141977.14, -143074.63, -0.01, -0.05, 1.01
49, -6102.38, -6093.04, -6185.20, -6124.02, -119852.46, -111873.88, -141978.75, -143076.31, -0.01, -0.05, 1.01
50, -6101.44, -6092.12, -6184.26, -6123.17, -119851.59, -111873.09, -141977.84, -143075.34, -0.01, -0.05, 1.01
